File: Fig 1/Fig 1_RRDE-an-Fe2O3_5mvs_ring.mpt
mode	ox/red	error	control changes	counter inc.	time/s	control/V	Ewe/V	<I>/mA	cycle number	(Q-Qo)/C	I Range	step time/s	P/W
2	1	0	0	0	0.000000000000000E+000	-0.300383	-0.300712	0.260294	1	0.0000000E+000	40	0.000000000000000E+000	-7.82735e-05
2	1	0	1	0	6.749	-0.334128	-0.334463	0.00966825	1	0.000152369	41	6.639	-3.23367e-06
2	1	0	1	0	13.5479	-0.368122	-0.36843	0.00624109	1	0.000203554	41	13.4379	-2.2994e-06
2	1	0	0	0	20.3468	-0.402117	-0.402412	0.00486845	1	0.000240387	41	20.2368	-1.95912e-06
2	1	0	1	0	27.1658	-0.436211	-0.43649	0.00401839	1	0.000270059	42	27.0558	-1.75399e-06
2	1	0	1	0	33.9646	-0.470206	-0.4705	0.00340207	1	0.000294789	42	33.8546	-1.60067e-06
2	1	0	0	0	40.7636	-0.504201	-0.504486	0.00294989	1	0.000315686	42	40.6536	-1.48818e-06
2	1	0	0	0	47.5624	-0.538195	-0.538451	0.00253727	1	0.000333573	42	47.4524	-1.3662e-06
2	1	0	1	0	54.3614	-0.57219	-0.572466	0.0021316	1	0.000348788	42	54.2514	-1.22027e-06
2	1	0	1	0	61.1602	-0.606184	-0.606453	0.00175209	1	0.000361536	42	61.0502	-1.06256e-06
2	1	0	0	0	67.9592	-0.640179	-0.640459	0.00141437	1	0.000372019	42	67.8492	-9.05844e-07
2	1	0	1	0	74.7582	-0.674174	-0.674425	0.00107966	1	0.000380067	42	74.6482	-7.28147e-07
2	1	0	1	0	81.557	-0.708168	-0.708445	0.000713673	1	0.000385494	42	81.447	-5.05598e-07
2	1	0	0	0	88.356	-0.742163	-0.74244	0.000304864	1	0.000388185	42	88.246	-2.26343e-07
2	0	0	0	0	95.1548	-0.776157	-0.776398	-0.000139057	1	0.000387917	42	3.9994	1.07963e-07
2	0	0	1	0	101.954	-0.810152	-0.810401	-0.000653199	1	0.000384425	42	10.7984	5.29353e-07
2	0	0	1	0	108.753	-0.844146	-0.844415	-0.00117256	1	0.000377669	42	17.5972	9.90128e-07
2	0	0	0	0	115.552	-0.878141	-0.8784	-0.00160133	1	0.000367848	42	24.3962	1.40661e-06
2	0	0	1	0	122.35	-0.912135	-0.91238	-0.00198376	1	0.000355141	42	31.1951	1.80995e-06
2	0	0	1	0	129.149	-0.94613	-0.946368	-0.00279378	1	0.000338337	42	37.994	2.64394e-06
2	0	0	0	0	135.948	-0.980125	-0.980359	-0.00440597	1	0.000313458	42	44.793	4.31943e-06
2	0	0	0	0	142.747	-1.01412	-1.01437	-0.00634262	1	0.000276734	42	51.5918	6.43373e-06
2	0	0	1	0	149.546	-1.04811	-1.04839	-0.0086339	1	0.000225448	42	58.3908	9.05166e-06
2	0	0	1	0	156.365	-1.08221	-1.08247	-0.011167	1	0.000157286	41	65.2096	1.2088e-05
2	0	0	0	0	163.164	-1.1162	-1.11643	-0.0148532	1	6.84246e-05	41	72.0086	1.65825e-05
2	0	0	1	0	169.963	-1.1502	-1.15045	-0.055753	1	-0.000116536	41	78.8075	6.4141e-05
2	0	0	1	0	176.782	-1.18429	-1.1845	-0.151872	1	-0.00083614	40	85.6264	0.000179892
2	0	0	1	0	183.581	-1.21829	-1.21851	-0.223224	1	-0.00201986	40	92.4253	0.000272
2	0	0	0	0	190.38	-1.25228	-1.25253	-0.517318	1	-0.00435131	40	99.2242	0.000647955
2	0	0	1	0	197.219	-1.28648	-1.28672	-1.54479	1	-0.0108611	39	106.063	0.00198771
2	0	0	1	1	203.838	-1.28048	-1.28071	-1.39494	2	-0.0219934	39	112.682	0.00178652
2	0	0	0	1	210.637	-1.24648	-1.24674	-1.04505	2	-0.0301518	39	119.481	0.00130289
2	0	0	1	1	217.436	-1.21249	-1.21271	-0.808962	2	-0.0364239	39	126.28	0.000981039
2	0	0	1	1	224.235	-1.17849	-1.17872	-0.57741	2	-0.0411375	39	133.079	0.000680606
2	0	0	0	1	231.074	-1.1443	-1.14453	-0.350712	2	-0.0442971	40	139.918	0.000401399
2	0	0	0	1	237.872	-1.1103	-1.11053	-0.173996	2	-0.0460251	40	146.717	0.000193228
2	0	0	1	1	244.671	-1.07631	-1.07656	-0.0780753	2	-0.0468414	40	153.516	8.40524e-05
2	0	0	1	1	251.51	-1.04211	-1.04238	-0.031517	2	-0.0471942	41	160.355	3.28526e-05
2	0	0	0	1	258.309	-1.00812	-1.00836	-0.0078917	2	-0.0473173	41	167.154	7.95767e-06
2	1	0	1	1	265.108	-0.974126	-0.974382	0.0148648	2	-0.0472988	41	3.9992	-1.4484e-05
2	1	0	1	1	271.907	-0.940131	-0.94038	0.049577	2	-0.047079	41	10.7982	-4.66212e-05
2	1	0	1	1	278.706	-0.906137	-0.906381	0.0731609	2	-0.0466505	41	17.5971	-6.63117e-05
2	1	0	0	1	285.505	-0.872142	-0.87243	0.0426037	2	-0.0462048	41	24.396	-3.71688e-05
2	1	0	1	1	292.304	-0.838147	-0.838435	0.0138368	2	-0.0460421	41	31.195	-1.16013e-05
2	1	0	1	1	299.103	-0.804153	-0.8044	0.0100549	2	-0.0459644	41	37.9938	-8.08813e-06
2	1	0	0	1	305.902	-0.770158	-0.770429	0.00855032	2	-0.0458993	41	44.7928	-6.58742e-06
2	1	0	1	1	312.7	-0.736163	-0.736419	0.00597582	2	-0.0458495	41	51.5917	-4.40071e-06
2	1	0	1	1	319.499	-0.702169	-0.702438	0.00444188	2	-0.0458136	41	58.3906	-3.12015e-06
2	1	0	1	1	326.338	-0.667975	-0.668241	0.00356659	2	-0.0457854	42	65.2295	-2.38334e-06
2	1	0	0	1	333.137	-0.63398	-0.634213	0.003092	2	-0.0457622	42	72.0284	-1.96099e-06
2	1	0	1	1	339.936	-0.599985	-0.600218	0.00252815	2	-0.0457427	42	78.8274	-1.51744e-06
2	1	0	1	1	346.735	-0.565991	-0.566259	0.00217322	2	-0.0457261	42	85.6262	-1.2306e-06
2	1	0	0	1	353.534	-0.531996	-0.532238	0.00197941	2	-0.0457115	42	92.4252	-1.05352e-06
2	1	0	0	1	360.333	-0.498002	-0.49824	0.00168453	2	-0.0456987	42	99.224	-8.39302e-07
2	1	0	1	1	367.132	-0.464007	-0.46426	0.00151183	2	-0.0456872	42	106.023	-7.01881e-07
2	1	0	1	1	373.931	-0.430012	-0.430258	0.00142705	2	-0.0456766	42	112.822	-6.14e-07
2	1	0	0	1	380.73	-0.396018	-0.396239	0.00128414	2	-0.0456667	42	119.621	-5.08827e-07
2	1	0	1	1	387.528	-0.362024	-0.36224	0.00118874	2	-0.0456576	42	126.42	-4.3061e-07
2	1	0	1	1	394.327	-0.328029	-0.328266	0.00115273	2	-0.045649	42	133.219	-3.78402e-07
2	1	0	1	1	400.847	-0.304533	-0.304732	0.000908986	2	-0.0456414	42	139.738	-2.76997e-07
2	1	0	1	1	407.646	-0.338527	-0.338751	0.000519365	2	-0.0456376	42	146.537	-1.75936e-07
2	0	0	0	1	414.445	-0.372522	-0.372757	0.000281024	2	-0.0456356	42	153.336	-1.04753e-07
2	1	0	0	1	421.244	-0.406516	-0.406743	0.000147887	2	-0.0456347	42	160.135	-6.0152e-08
2	1	0	1	1	428.043	-0.440511	-0.440729	5.52477e-05	2	-0.0456345	42	1.7998	-2.43493e-08
2	1	0	1	1	434.841	-0.474505	-0.474739	-9.87993e-06	2	-0.045635	42	8.5986	4.69039e-09
2	1	0	0	1	441.64	-0.5085	-0.508723	-8.72635e-05	2	-0.0456361	42	15.3976	4.43929e-08
2	1	0	1	1	448.439	-0.542494	-0.542739	-0.000155628	2	-0.0456377	42	22.1965	8.44651e-08
2	0	0	1	1	455.238	-0.576489	-0.576741	-0.000248314	2	-0.0456397	42	28.9954	1.43213e-07
2	0	0	0	1	462.037	-0.610484	-0.610736	-0.000372261	2	-0.0456423	42	35.7944	2.27353e-07
2	0	0	0	1	468.836	-0.644478	-0.644748	-0.000506176	2	-0.0456456	42	42.5932	3.26356e-07
2	0	0	1	1	475.635	-0.678473	-0.678719	-0.000674985	2	-0.04565	42	49.3922	4.58125e-07
2	0	0	1	1	482.434	-0.712467	-0.712731	-0.000910658	2	-0.045656	42	56.191	6.49054e-07
2	0	0	0	1	489.233	-0.746462	-0.746714	-0.00117226	2	-0.0456639	42	62.99	8.75343e-07
2	0	0	1	1	496.032	-0.780457	-0.780712	-0.00148613	2	-0.0456736	42	69.7889	1.16024e-06
2	0	0	1	1	502.831	-0.814451	-0.814694	-0.00177986	2	-0.0456852	42	76.5878	1.45004e-06
2	0	0	0	1	509.63	-0.848446	-0.848689	-0.00198196	2	-0.0456985	42	83.3868	1.68207e-06
2	0	0	0	1	516.428	-0.88244	-0.882707	-0.00218606	2	-0.0457135	42	90.1856	1.92965e-06
2	0	0	1	1	523.227	-0.916435	-0.916668	-0.00251494	2	-0.0457301	42	96.9846	2.30537e-06
2	0	0	1	1	530.026	-0.950429	-0.950659	-0.00295303	2	-0.045749	42	103.783	2.80732e-06
2	0	0	0	1	536.825	-0.984424	-0.984665	-0.00360869	2	-0.0457718	42	110.582	3.55335e-06
2	0	0	1	1	543.624	-1.01842	-1.01864	-0.00452053	2	-0.0458001	42	117.381	4.60481e-06
2	0	0	1	1	550.423	-1.05241	-1.05265	-0.00583377	2	-0.0458364	42	124.18	6.14089e-06
2	0	0	1	1	557.222	-1.08641	-1.08665	-0.00718981	2	-0.0458805	42	130.979	7.81279e-06
2	0	0	0	1	564.041	-1.1205	-1.12073	-0.00950579	2	-0.0459375	41	137.798	1.06534e-05
2	0	0	1	1	570.84	-1.1545	-1.15474	-0.0133386	2	-0.046015	41	144.597	1.54026e-05
2	0	0	1	1	577.639	-1.18849	-1.18871	-0.0210258	2	-0.0461311	41	151.396	2.49935e-05
2	0	0	0	1	584.438	-1.22249	-1.22273	-0.0353599	2	-0.0463167	41	158.195	4.32356e-05
2	0	0	0	1	591.236	-1.25648	-1.25674	-0.0720583	2	-0.0466668	41	164.994	9.05583e-05
2	0	0	1	1	598.055	-1.29057	-1.29079	-0.157832	2	-0.0473953	40	171.813	0.000203728
2	0	0	0	0	604.655	-1.27648	-1.27671	-0.173305	3	-0.0486252	40	178.412	0.00022126
2	0	0	1	0	611.454	-1.24248	-1.24274	-0.143271	3	-0.0497003	40	185.211	0.000178049
2	0	0	1	0	618.253	-1.20849	-1.20872	-0.11332	3	-0.0505708	40	192.01	0.000136972
2	0	0	1	0	625.051	-1.17449	-1.17472	-0.0811615	3	-0.0512318	40	198.809	9.53421e-05
2	0	0	0	0	631.85	-1.1405	-1.14075	-0.0486522	3	-0.0516687	40	205.608	5.54999e-05
2	0	0	1	0	638.689	-1.1063	-1.10655	-0.0256088	3	-0.0519143	41	212.447	2.83374e-05
2	0	0	1	0	645.488	-1.07231	-1.07257	-0.0133033	3	-0.0520408	41	219.245	1.42687e-05
2	0	0	0	0	652.287	-1.03832	-1.03859	-0.00691157	3	-0.0521064	41	226.044	7.17828e-06
2	0	0	0	0	659.126	-1.00412	-1.00437	-0.00322892	3	-0.0521397	42	232.883	3.24304e-06
2	1	0	1	0	665.925	-0.970126	-0.970365	0.000656636	3	-0.0521485	42	0.9998	-6.37177e-07
2	1	0	1	0	672.724	-0.936132	-0.93638	0.00624646	3	-0.0521261	42	7.7986	-5.84906e-06
2	1	0	0	0	679.543	-0.902037	-0.902277	0.00735406	3	-0.0520698	41	14.6176	-6.6354e-06
2	1	0	1	0	686.362	-0.867943	-0.868197	0.00132248	3	-0.052041	42	21.4364	-1.14817e-06
2	1	0	1	0	693.161	-0.833948	-0.834228	2.03832e-05	3	-0.0520376	42	28.2354	-1.70042e-08
2	1	0	0	0	699.96	-0.799953	-0.800207	-0.000153982	3	-0.0520379	42	4.7994	1.23218e-07
2	0	0	0	0	706.758	-0.765959	-0.766224	-0.000257991	3	-0.0520388	42	11.5982	1.97679e-07
2	0	0	1	0	713.557	-0.731964	-0.732222	-0.000104565	3	-0.0520394	42	0.000000000000000E+000	7.65649e-08
2	1	0	1	0	720.356	-0.69797	-0.698206	0.000224311	3	-0.0520384	42	6.3989	-1.56616e-07
2	0	0	0	0	727.155	-0.663975	-0.664225	0.000390099	3	-0.052036	42	13.1979	-2.59113e-07
2	1	0	1	0	733.954	-0.629981	-0.630252	0.000542981	3	-0.0520321	42	19.9967	-3.42215e-07
2	1	0	1	0	740.753	-0.595986	-0.596224	0.000455474	3	-0.0520282	42	26.7957	-2.71564e-07
2	0	0	1	0	747.552	-0.561992	-0.562239	0.000440339	3	-0.0520248	42	33.5946	-2.47576e-07
2	1	0	0	0	754.351	-0.527997	-0.528257	0.000382454	3	-0.0520214	42	40.3935	-2.02034e-07
2	1	0	1	0	761.15	-0.494002	-0.494252	0.000410479	3	-0.0520181	42	47.1925	-2.0288e-07
2	1	0	1	0	767.949	-0.460008	-0.46025	0.000407321	3	-0.0520149	42	53.9913	-1.87469e-07
2	0	0	0	0	774.748	-0.426013	-0.426273	0.00034994	3	-0.0520117	42	60.7903	-1.4917e-07
2	1	0	0	0	781.546	-0.392019	-0.392262	0.000369454	3	-0.0520085	42	67.5891	-1.44923e-07
2	1	0	1	0	788.345	-0.358024	-0.358244	0.000390903	3	-0.0520054	42	74.3881	-1.40039e-07
2	1	0	1	0	795.144	-0.324029	-0.324238	0.000400644	3	-0.0520022	42	81.187	-1.29904e-07
2	1	0	0	0	801.392	-0.307182	-0.307462	-5.55778e-05	3	-0.0519995	42	0.000000000000000E+000	1.70881e-08