File: Fig 1/Fig 1_RRDE-pc-Fe2O3_5mvs_ring.mpt
mode	ox/red	error	control changes	counter inc.	time/s	control/V	Ewe/V	<I>/mA	cycle number	(Q-Qo)/C	I Range	step time/s	P/W
2	1	0	0	0	0.000000000000000E+000	-0.300004	-1.16891	0.0100342	1	0.0000000E+000	39	0.000000000000000E+000	-1.1729e-05
2	1	0	1	0	8.5087	-0.342548	-0.342071	0.0092075	1	0.000187928	39	8.3987	-3.14962e-06
2	1	0	1	0	17.1073	-0.385541	-0.385252	0.00619459	1	0.000251386	39	16.9973	-2.38648e-06
2	1	0	1	0	25.7059	-0.428534	-0.4282	0.00479232	1	0.000297822	39	25.5959	-2.05207e-06
2	1	0	1	0	34.3045	-0.471527	-0.471178	0.00412488	1	0.000335488	39	34.1945	-1.94355e-06
2	1	0	1	0	42.9031	-0.51452	-0.514105	0.00352389	1	0.000368096	39	42.7931	-1.81165e-06
2	1	0	0	0	51.5016	-0.557513	-0.556987	0.0030825	1	0.000396707	39	51.3916	-1.71691e-06
2	1	0	1	0	60.1002	-0.600506	-0.600111	0.00278202	1	0.000421727	39	59.9902	-1.66952e-06
2	1	0	1	0	68.6989	-0.643499	-0.643256	0.00245552	1	0.000444165	39	68.5889	-1.57952e-06
2	1	0	1	0	77.2974	-0.686491	-0.686279	0.00218704	1	0.000464324	39	77.1874	-1.50092e-06
2	1	0	0	0	85.896	-0.729484	-0.729296	0.00206996	1	0.000482599	39	85.786	-1.50962e-06
2	1	0	1	0	94.4946	-0.772478	-0.77209	0.00174587	1	0.000499123	39	94.3846	-1.34797e-06
2	1	0	0	0	103.093	-0.815471	-0.815176	0.0013164	1	0.000512287	39	102.983	-1.0731e-06
2	1	0	1	0	111.692	-0.858464	-0.858586	0.000829848	1	0.000521599	39	111.582	-7.12496e-07
2	1	0	0	0	120.29	-0.901456	-0.901417	0.000436775	1	0.000526707	39	120.18	-3.93716e-07
2	0	0	1	0	128.889	-0.944449	-0.944177	-1.3563e-05	1	0.000528889	39	128.779	1.28059e-08
2	0	0	0	0	137.488	-0.987443	-0.986964	-0.000450633	1	0.000527237	39	7.5987	4.44758e-07
2	0	0	1	0	146.086	-1.03044	-1.03059	-0.00116975	1	0.000520391	39	16.1973	1.20553e-06
2	0	0	0	0	154.685	-1.07343	-1.07325	-0.00215141	1	0.000506013	39	24.7959	2.309e-06
2	0	0	1	0	163.283	-1.11642	-1.11609	-0.00373542	1	0.000481494	39	33.3945	4.16905e-06
2	0	0	0	0	171.882	-1.15941	-1.15909	-0.00605401	1	0.000440636	39	41.9931	7.01713e-06
2	0	0	1	0	180.481	-1.20241	-1.20196	-0.0141457	1	0.000363292	39	50.5917	1.70027e-05
2	0	0	0	0	189.079	-1.2454	-1.24472	-0.0743681	1	1.29711e-05	39	59.1903	9.25676e-05
2	0	0	1	0	197.678	-1.28839	-1.28791	-0.237714	1	-0.00112957	39	67.7889	0.000306155
2	0	0	1	1	205.917	-1.2705	-1.27163	-0.248086	2	-0.00360226	39	76.0281	0.000315474
2	0	0	0	1	214.516	-1.2275	-1.22786	-0.156435	2	-0.00528819	39	84.6267	0.00019208
2	0	0	1	1	223.114	-1.18451	-1.18476	-0.0995541	2	-0.00637869	39	93.2253	0.000117947
2	0	0	0	1	231.713	-1.14152	-1.14179	-0.0488023	2	-0.0070067	39	101.824	5.57222e-05
2	0	0	1	1	240.311	-1.09852	-1.09896	-0.0178409	2	-0.00727617	39	110.422	1.96064e-05
2	0	0	0	1	248.91	-1.05553	-1.05565	-0.00471341	2	-0.00736456	39	119.021	4.97574e-06
2	1	0	1	1	257.509	-1.01254	-1.01274	0.00122711	2	-0.00737693	39	1.9998	-1.24274e-06
2	1	0	0	1	266.107	-0.969545	-0.970055	0.00801166	2	-0.0073438	39	10.5984	-7.77175e-06
2	1	0	1	1	274.706	-0.926552	-0.926666	0.0282148	2	-0.00719235	39	19.197	-2.61457e-05
2	1	0	0	1	283.304	-0.883559	-0.884075	0.0403183	2	-0.00688528	39	27.7956	-3.56444e-05
2	1	0	1	1	291.903	-0.840566	-0.841328	0.0317318	2	-0.00655378	39	36.3942	-2.66968e-05
2	1	0	0	1	300.502	-0.797573	-0.797778	0.0126313	2	-0.00637021	39	44.9928	-1.00769e-05
2	1	0	1	1	309.1	-0.75458	-0.755129	0.00509289	2	-0.00630015	39	53.5914	-3.84579e-06
2	1	0	0	1	317.699	-0.711587	-0.711771	0.00333536	2	-0.00626567	39	62.19	-2.37401e-06
2	1	0	1	1	326.297	-0.668594	-0.668802	0.00285684	2	-0.00623936	39	70.7886	-1.91066e-06
2	1	0	0	1	334.896	-0.625601	-0.62617	0.00254965	2	-0.00621662	39	79.3872	-1.59651e-06
2	1	0	1	1	343.495	-0.582608	-0.583256	0.0023935	2	-0.00619575	39	87.9858	-1.39602e-06
2	1	0	0	1	352.093	-0.539616	-0.540029	0.00219331	2	-0.00617598	39	96.5844	-1.18445e-06
2	1	0	1	1	360.692	-0.496622	-0.497008	0.00214287	2	-0.00615723	39	105.183	-1.06503e-06
2	1	0	0	1	369.29	-0.453629	-0.454017	0.00218013	2	-0.00613864	39	113.782	-9.89814e-07
2	1	0	1	1	377.889	-0.410637	-0.410853	0.00195617	2	-0.006121	39	122.38	-8.03698e-07
2	1	0	0	1	386.488	-0.367644	-0.367963	0.00188888	2	-0.00610418	39	130.979	-6.95036e-07
2	1	0	1	1	395.086	-0.324651	-0.325523	0.0019193	2	-0.00608778	39	139.577	-6.24777e-07
2	1	0	1	1	403.325	-0.316552	-0.316161	0.00140608	2	-0.0060732	39	147.817	-4.44548e-07
2	1	0	0	1	411.924	-0.359545	-0.359113	0.00113929	2	-0.00606265	39	156.415	-4.09135e-07
2	1	0	1	1	420.523	-0.402538	-0.402204	0.00102558	2	-0.00605346	39	165.014	-4.12494e-07
2	1	0	0	1	429.121	-0.445531	-0.445246	0.000927911	2	-0.00604499	39	173.612	-4.13148e-07
2	1	0	1	1	437.72	-0.488524	-0.488193	0.000911488	2	-0.00603709	39	182.211	-4.44982e-07
2	1	0	0	1	446.318	-0.531517	-0.531362	0.000796008	2	-0.00602974	39	190.81	-4.22969e-07
2	1	0	1	1	454.917	-0.57451	-0.574152	0.000641717	2	-0.00602328	39	199.408	-3.68443e-07
2	1	0	0	1	463.516	-0.617503	-0.617065	0.000736755	2	-0.00601748	39	208.007	-4.54626e-07
2	1	0	1	1	472.114	-0.660496	-0.659917	0.000567425	2	-0.00601174	39	216.605	-3.74453e-07
2	1	0	0	1	480.713	-0.703489	-0.703037	0.000510506	2	-0.00600684	39	225.204	-3.58905e-07
2	1	0	1	1	489.311	-0.746482	-0.746173	0.000373892	2	-0.00600325	39	233.803	-2.78988e-07
2	1	0	0	1	497.91	-0.789475	-0.789034	0.000142931	2	-0.00600112	39	242.401	-1.12778e-07
2	0	0	1	1	506.509	-0.832468	-0.831957	-6.27026e-05	2	-0.00600073	39	1.1998	5.21659e-08
2	0	0	0	1	515.107	-0.875461	-0.875086	-0.000385762	2	-0.0060025	39	9.7984	3.37575e-07
2	0	0	1	1	523.706	-0.918454	-0.91833	-0.000643474	2	-0.00600692	39	18.397	5.90921e-07
2	0	0	1	1	532.304	-0.961446	-0.961134	-0.00128787	2	-0.00601523	39	26.9955	1.23781e-06
2	0	0	1	1	540.903	-1.00444	-1.00411	-0.00212225	2	-0.00602994	39	35.5941	2.13097e-06
2	0	0	1	1	549.502	-1.04743	-1.04711	-0.00302097	2	-0.00605235	39	44.1928	3.16328e-06
2	0	0	1	1	558.1	-1.09043	-1.08999	-0.00402582	2	-0.00608271	39	52.7913	4.38811e-06
2	0	0	1	1	566.699	-1.13342	-1.13304	-0.0051356	2	-0.00612193	39	61.3899	5.81884e-06
2	0	0	1	1	575.297	-1.17641	-1.17615	-0.00701802	2	-0.00617294	39	69.9885	8.25423e-06
2	0	0	1	1	583.896	-1.2194	-1.21889	-0.0191179	2	-0.00628043	39	78.5871	2.33026e-05
2	0	0	1	1	592.494	-1.2624	-1.26209	-0.0351979	2	-0.00649999	39	87.1857	4.4423e-05
2	0	0	0	0	600.734	-1.29649	-1.29706	-0.0950302	3	-0.0070034	39	95.4248	0.00012326
2	0	0	1	0	609.332	-1.2535	-1.25425	-0.0650501	3	-0.00767568	39	104.023	8.15893e-05
2	0	0	0	0	617.931	-1.21051	-1.21093	-0.047559	3	-0.00815831	39	112.622	5.75908e-05
2	0	0	1	0	626.529	-1.16751	-1.16794	-0.0292906	3	-0.00849196	39	121.221	3.42096e-05
2	0	0	0	0	635.128	-1.12452	-1.12496	-0.012483	3	-0.00866652	39	129.819	1.40428e-05
2	0	0	1	0	643.727	-1.08153	-1.08191	-0.00445419	3	-0.00873423	39	138.418	4.81904e-06
2	0	0	0	0	652.325	-1.03853	-1.03904	-0.000883294	3	-0.00875481	39	147.016	9.17773e-07
2	1	0	1	0	660.924	-0.995541	-0.996073	0.00122672	3	-0.00875401	39	4.1994	-1.22191e-06
2	1	0	0	0	669.522	-0.952548	-0.952562	0.00737556	3	-0.00871982	39	12.798	-7.02568e-06
2	1	0	1	0	678.121	-0.909555	-0.910059	0.0161629	3	-0.00861897	39	21.3966	-1.47092e-05
2	1	0	0	0	686.72	-0.866562	-0.8674	0.0151351	3	-0.00847169	39	29.9952	-1.31282e-05
2	1	0	1	0	695.318	-0.823569	-0.823923	0.00664526	3	-0.0083783	39	38.5938	-5.47518e-06
2	1	0	0	0	703.917	-0.780576	-0.780952	0.00257458	3	-0.00834302	39	47.1924	-2.01063e-06
2	1	0	1	0	712.515	-0.737583	-0.738285	0.00194415	3	-0.00832448	39	55.791	-1.43534e-06
2	1	0	0	0	721.114	-0.69459	-0.695092	0.00190495	3	-0.00830827	39	64.3896	-1.32412e-06
2	1	0	1	0	729.713	-0.651597	-0.652059	0.00179717	3	-0.00829244	39	72.9882	-1.17186e-06
2	1	0	0	0	738.311	-0.608604	-0.608678	0.00168294	3	-0.0082776	39	81.5868	-1.02437e-06
2	1	0	1	0	746.91	-0.565611	-0.566361	0.00171038	3	-0.00826315	39	90.1854	-9.68694e-07
2	1	0	0	0	755.508	-0.522618	-0.522839	0.00166807	3	-0.00824876	39	98.784	-8.72133e-07
2	1	0	1	0	764.107	-0.479625	-0.480195	0.00155536	3	-0.00823478	39	107.383	-7.46876e-07
2	1	0	0	0	772.706	-0.436632	-0.437433	0.00150099	3	-0.00822159	39	115.981	-6.56582e-07
2	1	0	1	0	781.304	-0.393639	-0.394202	0.00157571	3	-0.00820822	39	124.58	-6.2115e-07
2	1	0	0	0	789.903	-0.350646	-0.350785	0.00162459	3	-0.00819453	39	133.178	-5.69884e-07
2	1	0	1	0	798.501	-0.307653	-0.30793	0.00161042	3	-0.00818085	39	141.777	-4.95897e-07
2	1	0	1	0	806.741	-0.333549	-0.33325	0.00100968	3	-0.00817058	39	150.016	-3.36476e-07
2	1	0	0	0	815.339	-0.376542	-0.376332	0.000829156	3	-0.00816272	39	158.615	-3.12038e-07
2	1	0	1	0	823.938	-0.419535	-0.419407	0.000819087	3	-0.00815583	39	167.213	-3.4353e-07
2	1	0	0	0	832.536	-0.462528	-0.462467	0.000678237	3	-0.00814935	39	175.812	-3.13662e-07
2	1	0	1	0	841.135	-0.505521	-0.505257	0.000605846	3	-0.00814342	39	184.411	-3.06108e-07
2	1	0	0	0	849.734	-0.548514	-0.548067	0.000629789	3	-0.0081382	39	193.009	-3.45167e-07
2	1	0	1	0	858.332	-0.591507	-0.591308	0.000673613	3	-0.00813298	39	201.608	-3.98313e-07
2	1	0	0	0	866.931	-0.6345	-0.634045	0.000545556	3	-0.00812788	39	210.206	-3.45907e-07
2	1	0	1	0	875.529	-0.677493	-0.676889	0.000451858	3	-0.00812352	39	218.805	-3.05858e-07
2	1	0	0	0	884.128	-0.720486	-0.720038	0.000367193	3	-0.00811987	39	227.404	-2.64393e-07
2	1	0	1	0	892.727	-0.763479	-0.763315	0.000141592	3	-0.00811748	39	236.002	-1.08079e-07
2	0	0	0	0	901.325	-0.806472	-0.805727	1.64991e-06	3	-0.00811685	39	0.6	-1.32937e-09
2	0	0	1	0	909.924	-0.849465	-0.849042	-0.000122128	3	-0.00811757	39	9.1986	1.03692e-07
2	0	0	0	0	918.522	-0.892458	-0.891987	-0.000450806	3	-0.00812007	39	17.7972	4.02113e-07
2	0	0	1	0	927.121	-0.935451	-0.935246	-0.000694818	3	-0.00812476	39	26.3958	6.49826e-07
2	0	0	0	0	935.72	-0.978444	-0.977718	-0.00102674	3	-0.00813186	39	34.9944	1.00386e-06
2	0	0	1	0	944.318	-1.02144	-1.02132	-0.00138368	3	-0.00814203	39	43.593	1.41318e-06
2	0	0	0	0	952.917	-1.06443	-1.06382	-0.0016187	3	-0.00815487	39	52.1916	1.72201e-06
2	0	0	1	0	961.515	-1.10742	-1.10737	-0.00198407	3	-0.00817015	39	60.7902	2.1971e-06
2	0	0	0	0	970.114	-1.15042	-1.15035	-0.0025619	3	-0.00818927	39	69.3888	2.94708e-06
2	0	0	1	0	978.713	-1.19341	-1.19286	-0.00406163	3	-0.00821689	39	77.9874	4.84498e-06
2	0	0	0	0	987.311	-1.2364	-1.23581	-0.0080686	3	-0.00826687	39	86.586	9.97128e-06
2	0	0	1	0	995.91	-1.2794	-1.27888	-0.0175628	3	-0.00837006	39	95.1846	2.24608e-05
2	0	0	0	0	1000.02	-1.30004	-1.29985	-0.0298762	3	-0.00846518	39	99.2956	3.88347e-05