File: Fig 1/Fig 1_RRDE-bf-Fe3O4_5mVs_disk.mpt
mode	ox/red	error	control changes	counter inc.	time/s	control/V	Ewe/V	<I>/mA	cycle number	(Q-Qo)/C	I Range	step time/s	P/W
2	1	1	0	0	0.000000000000000E+000	-0.3	-0.300583	0.205864	1	0.0000000E+000	40	0.000000000000000E+000	-6.18791e-05
2	1	0	0	0	10.9112	-0.354556	-0.354553	-0.00050454	1	-2.39515e-06	40	10.001	1.78887e-07
2	0	0	0	0	21.9124	-0.409561	-0.409537	-0.00063776	1	-1.25902e-05	40	21.0022	2.61186e-07
2	0	0	1	0	32.9134	-0.464567	-0.46456	-0.000800678	1	-2.45442e-05	40	32.0032	3.71963e-07
2	0	0	1	0	43.9146	-0.519573	-0.519553	-0.000784141	1	-3.73854e-05	40	43.0044	4.07403e-07
2	1	0	1	0	54.9158	-0.574578	-0.574542	-0.000849262	1	-5.12517e-05	40	54.0056	4.87937e-07
2	0	0	1	0	65.9169	-0.629585	-0.629553	-0.00101608	1	-6.69741e-05	40	65.0067	6.39674e-07
2	0	0	0	0	76.918	-0.68459	-0.68456	-0.0012937	1	-8.5313e-05	40	76.0078	8.85613e-07
2	0	0	0	0	87.9192	-0.739595	-0.739565	-0.00158857	1	-0.000106969	40	87.009	1.17485e-06
2	0	0	1	0	98.9203	-0.794602	-0.794565	-0.00194906	1	-0.000132288	40	98.0101	1.54866e-06
2	0	0	1	0	109.921	-0.849607	-0.849571	-0.00231291	1	-0.000161611	40	109.011	1.96498e-06
2	0	0	1	0	120.923	-0.904613	-0.904596	-0.00276627	1	-0.000195678	40	120.012	2.50235e-06
2	0	0	1	0	131.924	-0.959618	-0.959573	-0.00310614	1	-0.000234625	40	131.013	2.98056e-06
2	0	0	0	0	142.925	-1.01462	-1.01459	-0.00360586	1	-0.00027818	40	142.015	3.65848e-06
2	0	0	0	0	153.926	-1.06963	-1.0696	-0.00418379	1	-0.00032718	40	153.016	4.47498e-06
2	0	0	0	0	164.927	-1.12464	-1.12461	-0.00494391	1	-0.000382921	40	164.017	5.55995e-06
2	0	0	1	0	175.928	-1.17964	-1.1796	-0.00590306	1	-0.000447612	40	175.018	6.96327e-06
2	0	0	1	0	186.929	-1.23465	-1.2346	-0.0122824	1	-0.000539013	40	186.019	1.51638e-05
2	0	0	1	0	197.931	-1.28965	-1.28961	-0.0978226	1	-0.00091523	40	197.02	0.000126153
2	0	0	0	0	208.932	-1.34466	-1.34462	-0.250669	1	-0.0029213	40	208.021	0.000337055
2	0	0	0	1	219.713	-1.30145	-1.3014	-0.108418	2	-0.00489574	40	218.803	0.000141095
2	0	0	0	1	230.714	-1.24645	-1.24642	-0.0454916	2	-0.00567031	40	229.804	5.67015e-05
2	0	0	0	1	241.716	-1.19144	-1.19141	-0.0265886	2	-0.00606378	40	240.805	3.16778e-05
2	0	0	1	1	252.717	-1.13644	-1.1364	-0.0120408	2	-0.00626651	40	251.806	1.36832e-05
2	0	0	1	1	263.718	-1.08143	-1.08138	-0.00326484	2	-0.00633878	40	262.808	3.53053e-06
2	1	0	1	1	274.719	-1.02643	-1.02637	0.00115831	2	-0.00634234	40	4.6006	-1.18886e-06
2	1	0	0	1	285.72	-0.971419	-0.97139	0.00312315	2	-0.0063146	40	15.6016	-3.03379e-06
2	1	0	0	1	296.721	-0.916414	-0.916377	0.00499639	2	-0.00626411	40	26.6028	-4.57857e-06
2	1	0	0	1	307.722	-0.861408	-0.861366	0.00585843	2	-0.00619887	40	37.604	-5.04625e-06
2	1	0	1	1	318.723	-0.806402	-0.806333	0.00697522	2	-0.00612348	40	48.605	-5.62435e-06
2	1	0	1	1	329.725	-0.751397	-0.751314	0.00731802	2	-0.00603679	40	59.6062	-5.49813e-06
2	1	0	1	1	340.726	-0.696391	-0.69636	0.00654967	2	-0.00595748	40	70.6074	-4.56092e-06
2	1	0	0	1	351.727	-0.641385	-0.641331	0.00527603	2	-0.00588974	40	81.6084	-3.38369e-06
2	1	0	0	1	362.728	-0.58638	-0.586321	0.00461391	2	-0.0058297	40	92.6096	-2.70523e-06
2	1	0	0	1	373.729	-0.531374	-0.531318	0.00417802	2	-0.00577672	40	103.611	-2.21985e-06
2	1	0	1	1	384.73	-0.476368	-0.476327	0.00364601	2	-0.00572994	40	114.612	-1.73669e-06
2	1	0	1	1	395.731	-0.421363	-0.421301	0.00336768	2	-0.00568775	40	125.613	-1.41881e-06
2	1	0	1	1	406.733	-0.366357	-0.366313	0.00303916	2	-0.00564863	40	136.614	-1.11328e-06
2	1	0	1	1	417.734	-0.311351	-0.311281	0.00292743	2	-0.00561239	40	147.615	-9.11252e-07
2	1	0	1	1	428.515	-0.342554	-0.342506	0.00142986	2	-0.00559153	40	158.397	-4.89737e-07
2	1	0	0	1	439.516	-0.39756	-0.397507	0.00100927	2	-0.00558206	40	169.398	-4.01191e-07
2	1	0	0	1	450.518	-0.452566	-0.452523	0.000624279	2	-0.0055773	40	180.399	-2.82501e-07
2	1	0	0	1	461.519	-0.507571	-0.507524	0.000359313	2	-0.00557601	40	0.000000000000000E+000	-1.8236e-07
2	0	0	1	1	472.52	-0.562578	-0.562546	0.000174822	2	-0.00557721	40	10.8011	-9.83453e-08
2	1	0	1	1	483.521	-0.617583	-0.617544	-2.61788e-05	2	-0.00558115	40	21.8022	1.61665e-08
2	1	0	1	1	494.522	-0.672589	-0.672552	-0.000272402	2	-0.00558793	40	32.8034	1.83204e-07
2	1	0	1	1	505.523	-0.727594	-0.727544	-0.000554286	2	-0.00559774	40	43.8045	4.03267e-07
2	0	0	0	1	516.524	-0.7826	-0.782537	-0.000896282	2	-0.00561122	40	54.8056	7.01374e-07
2	0	0	0	1	527.526	-0.837606	-0.837559	-0.0013601	2	-0.0056292	40	65.8068	1.13917e-06
2	0	0	0	1	538.527	-0.892611	-0.892577	-0.00187236	2	-0.00565275	40	76.808	1.67122e-06
2	0	0	1	1	549.528	-0.947617	-0.947571	-0.00219895	2	-0.00568076	40	87.809	2.08366e-06
2	0	0	1	1	560.529	-1.00262	-1.00259	-0.00244899	2	-0.00571191	40	98.8102	2.45532e-06
2	0	0	1	1	571.53	-1.05763	-1.05758	-0.00274403	2	-0.00574633	40	109.811	2.90202e-06
2	0	0	0	1	582.531	-1.11263	-1.11259	-0.0032299	2	-0.00578519	40	120.812	3.59356e-06
2	0	0	0	1	593.532	-1.16764	-1.16759	-0.00405561	2	-0.005833	40	131.814	4.73531e-06
2	0	0	0	1	604.534	-1.22265	-1.22261	-0.00606821	2	-0.00589558	40	142.815	7.41904e-06
2	0	0	1	1	615.535	-1.27765	-1.27759	-0.0122984	2	-0.00599342	40	153.816	1.57123e-05
2	0	0	1	1	626.536	-1.33266	-1.33259	-0.0391029	2	-0.00624158	40	164.817	5.21083e-05
2	0	0	1	0	637.317	-1.31345	-1.31338	-0.0307126	3	-0.00666369	40	175.599	4.03374e-05
2	0	0	1	0	648.319	-1.25845	-1.25838	-0.0128186	3	-0.00689832	40	186.6	1.61307e-05
2	0	0	0	0	659.32	-1.20344	-1.2034	-0.00950421	3	-0.00701135	40	197.601	1.14373e-05
2	0	0	0	0	670.321	-1.14844	-1.14839	-0.00477993	3	-0.00709702	40	208.602	5.48921e-06
2	0	0	0	0	681.322	-1.09343	-1.09341	-0.00173682	3	-0.00712672	40	219.603	1.89907e-06
2	1	0	1	0	692.323	-1.03843	-1.03841	0.000277612	3	-0.00712861	40	4.6004	-2.88276e-07
2	1	0	1	0	703.324	-0.983421	-0.983384	0.00107068	3	-0.00711598	40	15.6016	-1.05289e-06
2	1	0	1	0	714.325	-0.928415	-0.928394	0.00180544	3	-0.00709412	40	26.6028	-1.67616e-06
2	1	0	0	0	725.326	-0.873409	-0.873382	0.00194812	3	-0.00706775	40	37.6038	-1.70145e-06
2	1	0	0	0	736.328	-0.818404	-0.818383	0.00227822	3	-0.00703991	40	48.605	-1.86446e-06
2	1	0	0	0	747.329	-0.763398	-0.763353	0.00284867	3	-0.00700583	40	59.6062	-2.17454e-06
2	1	0	1	0	758.33	-0.708392	-0.708343	0.00261325	3	-0.0069714	40	70.6073	-1.85108e-06
2	1	0	1	0	769.331	-0.653387	-0.653351	0.00225469	3	-0.00694	40	81.6084	-1.4731e-06
2	1	0	1	0	780.332	-0.598381	-0.598328	0.00215307	3	-0.00691144	40	92.6096	-1.28824e-06
2	1	0	1	0	791.333	-0.543375	-0.543341	0.00204696	3	-0.00688414	40	103.611	-1.11219e-06
2	1	0	0	0	802.334	-0.48837	-0.488321	0.00197113	3	-0.00685773	40	114.612	-9.62544e-07
2	1	0	0	0	813.336	-0.433364	-0.433315	0.00188878	3	-0.00683254	40	125.613	-8.18437e-07
2	1	0	0	0	824.337	-0.378358	-0.378319	0.00186435	3	-0.00680828	40	136.614	-7.05319e-07
2	1	0	1	0	835.338	-0.323352	-0.323317	0.00199897	3	-0.0067838	40	147.615	-6.46299e-07
2	1	0	1	0	846.119	-0.330553	-0.33051	0.000923656	3	-0.00676731	40	158.397	-3.05278e-07
2	1	0	1	0	857.121	-0.385559	-0.385501	0.000420859	3	-0.00676391	40	169.398	-1.62242e-07
2	1	0	1	0	868.122	-0.440565	-0.440505	0.000178524	3	-0.00676446	40	7.6008	-7.86407e-08
2	0	0	1	0	879.123	-0.49557	-0.495519	-4.36129e-05	3	-0.00676761	40	18.602	2.1611e-08
2	1	0	0	0	890.124	-0.550576	-0.550511	-0.000187259	3	-0.00677295	40	29.603	1.03088e-07
2	0	0	0	0	901.125	-0.605582	-0.605532	-0.000297823	3	-0.00678033	40	40.6042	1.80341e-07
2	0	0	0	0	912.126	-0.660587	-0.660533	-0.000544787	3	-0.00678961	40	51.6054	3.59849e-07
2	1	0	1	0	923.127	-0.715593	-0.715551	-0.000761428	3	-0.00680166	40	62.6064	5.44841e-07
2	0	0	1	0	934.129	-0.770599	-0.77053	-0.00103753	3	-0.00681658	40	73.6076	7.99449e-07
2	0	0	1	0	945.13	-0.825604	-0.825566	-0.00131578	3	-0.00683467	40	84.6088	1.08626e-06
2	0	0	0	0	956.131	-0.88061	-0.880552	-0.00172635	3	-0.00685686	40	95.6098	1.52015e-06
2	0	0	0	0	967.132	-0.935616	-0.935608	-0.00200003	3	-0.00688283	40	106.611	1.87124e-06
2	0	0	0	0	978.133	-0.990621	-0.990607	-0.00225529	3	-0.00691144	40	117.612	2.2341e-06
2	0	0	1	0	989.134	-1.04563	-1.04559	-0.00253391	3	-0.00694285	40	128.613	2.64942e-06
2	0	0	1	0	1000.14	-1.10063	-1.10057	-0.00290644	3	-0.00697854	40	139.614	3.19875e-06
2	0	0	1	0	1011.14	-1.15564	-1.15557	-0.00349573	3	-0.00701865	40	150.616	4.03957e-06
2	0	0	0	0	1022.14	-1.21064	-1.21057	-0.00457422	3	-0.00706815	40	161.617	5.53743e-06
2	0	0	0	0	1033.14	-1.26565	-1.26558	-0.00694674	3	-0.00713892	40	172.618	8.79164e-06
2	0	0	0	0	1044.14	-1.32066	-1.3206	-0.0131816	3	-0.0072469	40	183.619	1.74076e-05
2	0	0	0	1	1054.92	-1.32546	-1.32541	-0.0154607	4	-0.00744765	40	194.401	2.04918e-05
2	0	0	1	1	1065.92	-1.27045	-1.27038	-0.0132243	4	-0.00757686	40	205.402	1.67999e-05
2	0	0	1	1	1076.92	-1.21544	-1.21538	-0.00711422	4	-0.00767963	40	216.403	8.6465e-06
2	0	0	1	1	1087.92	-1.16044	-1.16039	-0.00390583	4	-0.00773438	40	227.404	4.53228e-06
2	0	0	1	1	1098.93	-1.10543	-1.10538	-0.0013147	4	-0.00775662	40	238.405	1.45324e-06
2	0	0	0	1	1109.93	-1.05043	-1.0504	4.11439e-05	4	-0.00775746	40	5.0004	-4.32175e-08
2	1	0	0	1	1120.93	-0.995422	-0.995364	0.00076266	4	-0.00774776	40	16.0016	-7.59124e-07
2	1	0	1	1	1131.93	-0.940416	-0.940371	0.00135565	4	-0.00773062	40	27.0027	-1.27482e-06
2	1	0	1	1	1142.93	-0.885411	-0.885397	0.00144428	4	-0.00771033	40	38.0038	-1.27876e-06
2	1	0	1	1	1153.93	-0.830405	-0.83037	0.00154587	4	-0.00768956	40	49.005	-1.28365e-06
2	1	0	1	1	1164.93	-0.775399	-0.775336	0.00187579	4	-0.00766605	40	60.0062	-1.45436e-06
2	1	0	0	1	1175.93	-0.720394	-0.720333	0.00170555	4	-0.00764145	40	71.0072	-1.22857e-06
2	1	0	0	1	1186.94	-0.665388	-0.665345	0.0017135	4	-0.00761807	40	82.0084	-1.14007e-06
2	1	0	0	1	1197.94	-0.610382	-0.610303	0.00168968	4	-0.00759496	40	93.0096	-1.03122e-06
2	1	0	1	1	1208.94	-0.555376	-0.555327	0.0016971	4	-0.00757212	40	104.011	-9.42448e-07
2	1	0	1	1	1219.94	-0.500371	-0.500346	0.00153762	4	-0.00755019	40	115.012	-7.69344e-07
2	1	0	1	1	1230.94	-0.445365	-0.445322	0.0015005	4	-0.00752935	40	126.013	-6.68204e-07
2	1	0	0	1	1241.94	-0.390359	-0.390317	0.00153186	4	-0.00750883	40	137.014	-5.97912e-07
2	1	0	0	1	1252.94	-0.335354	-0.335308	0.00157964	4	-0.00748823	40	148.015	-5.29665e-07
2	1	0	0	1	1263.72	-0.318552	-0.318503	0.000828735	4	-0.00747168	40	158.797	-2.63954e-07
2	1	0	0	1	1264.25	-0.321202	-0.321184	0.00053879	4	-0.00747141	40	159.323	-1.73051e-07