File: Fig 1/Fig 1_RRDE-an-Fe2O3_5mvs_disk.mpt
mode	ox/red	error	control changes	Ns changes	counter inc.	Ns	time/s	control/V	Ewe/V	<I>/mA	dQ/C	(Q-Qo)/C	I Range	Q charge/discharge/mA.h	half cycle	Energy charge/W.h	Energy discharge/W.h	Capacitance charge/µF	Capacitance discharge/µF	step time/s	Q discharge/mA.h	Q charge/mA.h	Capacity/mA.h	Efficiency/%	cycle number	P/W
2	1	1	0	0	0	0	0.1	-0.299994	-0.300079	0.250855	-7.52374e-06	-7.52374e-06	40	-2.08993e-06	0	0.000000000000000E+000	6.27143e-10	0.000000000000000E+000	0.000000000000000E+000	0.1	2.08993e-06	0.000000000000000E+000	2.08993e-06	0.0000000E+000	0.000000000000000E+000	-7.52764e-05
2	0	0	0	0	0	0	18.7274	-0.299994	-0.300067	-0.00236925	-5.84635e-05	-5.84635e-05	41	-1.59108e-05	3	5.28482e-10	4.77535e-09	138209	356645	18.3	1.59108e-05	0.000000000000000E+000	1.59108e-05	0.0000000E+000	1	7.10934e-07
2	0	0	0	0	0	0	37.3274	-0.299994	-0.300129	-0.00204488	-9.91368e-05	-9.91368e-05	41	-2.72089e-05	3	5.28482e-10	8.16591e-09	138209	985525	36.9	2.72089e-05	0.000000000000000E+000	2.72089e-05	0.0000000E+000	1	6.13728e-07
2	1	0	0	0	0	0	55.9274	-0.299994	-0.30006	-0.00189091	-0.000135919	-0.000135919	41	-3.74263e-05	3	5.28482e-10	1.1232e-08	138209	800875	55.5	3.74263e-05	0.000000000000000E+000	3.74263e-05	0.0000000E+000	1	5.67387e-07
2	0	0	0	0	0	0	74.5274	-0.299994	-0.300087	-0.00177549	-0.00017011	-0.00017011	41	-4.69238e-05	3	5.28482e-10	1.40823e-08	138209	1.19381e+06	74.1	4.69238e-05	0.000000000000000E+000	4.69238e-05	0.0000000E+000	1	5.328e-07
2	0	0	0	0	0	0	93.1274	-0.299994	-0.300075	-0.0017103	-0.000202493	-0.000202493	41	-5.59188e-05	3	5.28482e-10	1.67814e-08	138209	1.31621e+06	92.7	5.59188e-05	0.000000000000000E+000	5.59188e-05	0.0000000E+000	1	5.13218e-07
2	0	0	0	0	0	0	111.727	-0.299994	-0.300079	-0.00163502	-0.000233898	-0.000233898	41	-6.46426e-05	3	5.28482e-10	1.93992e-08	138209	1.56046e+06	111.3	6.46426e-05	0.000000000000000E+000	6.46426e-05	0.0000000E+000	1	4.90634e-07
2	1	0	0	0	0	0	130.327	-0.299994	-0.300064	-0.00148212	-0.000263131	-0.000263131	41	-7.27628e-05	3	5.28482e-10	2.18359e-08	138209	1.59316e+06	129.9	7.27628e-05	0.000000000000000E+000	7.27628e-05	0.0000000E+000	1	4.44729e-07
2	0	0	0	0	0	0	148.927	-0.299994	-0.300022	-0.000887071	-0.000286508	-0.000286508	41	-7.92563e-05	3	5.28482e-10	2.37845e-08	138209	1.38191e+06	148.5	7.92563e-05	0.000000000000000E+000	7.92563e-05	0.0000000E+000	1	2.66141e-07
2	1	0	0	0	0	0	167.527	-0.299994	-0.300067	0.000586848	-0.00029075	-0.00029075	41	4.34325e-07	4	1.30329e-10	0.000000000000000E+000	58359	0.000000000000000E+000	6.2	0.000000000000000E+000	4.34325e-07	4.34325e-07	0.0000000E+000	2	-1.76094e-07
2	1	0	0	0	0	0	186.127	-0.299994	-0.300083	-0.00135315	-0.000297331	-0.000297331	41	-3.47904e-06	5	6.25776e-10	1.04398e-09	987824	3.28323e+06	10.7	3.47904e-06	0.000000000000000E+000	3.47904e-06	0.0000000E+000	2	4.06056e-07
2	0	0	0	0	0	0	204.727	-0.299994	-0.300041	-0.00124985	-0.000320835	-0.000320835	41	-1.00077e-05	5	6.25776e-10	3.00311e-09	987824	942973	29.3	1.00077e-05	0.000000000000000E+000	1.00077e-05	0.0000000E+000	2	3.75005e-07
2	1	0	0	0	0	0	223.327	-0.299994	-0.300071	-0.00125867	-0.000344743	-0.000344743	41	-1.66489e-05	5	6.25776e-10	4.99589e-09	987824	7.88672e+06	47.9	1.66489e-05	0.000000000000000E+000	1.66489e-05	0.0000000E+000	2	3.77692e-07
2	0	0	0	0	0	0	241.927	-0.299994	-0.300064	-0.00133621	-0.000368851	-0.000368851	41	-2.33456e-05	5	6.25776e-10	7.00541e-09	987824	5.49719e+06	66.5	2.33456e-05	0.000000000000000E+000	2.33456e-05	0.0000000E+000	2	4.00947e-07
2	0	0	0	0	0	0	260.527	-0.299994	-0.300075	-0.00114182	-0.000392544	-0.000392544	41	-2.99269e-05	5	6.25776e-10	8.98025e-09	987824	2.8465e+07	85.1	2.99269e-05	0.000000000000000E+000	2.99269e-05	0.0000000E+000	2	3.42632e-07
2	1	0	0	0	0	0	279.127	-0.299994	-0.300171	0.00483184	-0.000364522	-0.000364522	41	9.10983e-06	6	2.73368e-09	0.000000000000000E+000	260026	0.000000000000000E+000	12.1	0.000000000000000E+000	9.10983e-06	9.10983e-06	0.0000000E+000	3	-1.45038e-06
2	0	0	0	0	0	0	297.727	-0.299994	-0.30009	-0.00125579	-0.000346582	-0.000346582	41	-2.60784e-06	7	5.0117e-09	7.82544e-10	0.000000000000000E+000	818226	9.7	2.60784e-06	0.000000000000000E+000	2.60784e-06	0.0000000E+000	3	3.76852e-07
2	0	0	0	0	0	0	316.327	-0.299994	-0.30006	-0.00136939	-0.000371209	-0.000371209	41	-9.44847e-06	7	5.0117e-09	2.83518e-09	0.000000000000000E+000	1.77778e+06	28.3	9.44847e-06	0.000000000000000E+000	9.44847e-06	0.0000000E+000	3	4.109e-07
2	0	0	0	0	0	0	334.927	-0.299994	-0.299999	-0.00137108	-0.000396654	-0.000396654	41	-1.65167e-05	7	5.0117e-09	4.95617e-09	0.000000000000000E+000	740591	46.9	1.65167e-05	0.000000000000000E+000	1.65167e-05	0.0000000E+000	3	4.11321e-07
2	1	0	0	0	0	0	353.527	-0.299994	-0.300041	-0.00140095	-0.000422589	-0.000422589	41	-2.37207e-05	7	5.0117e-09	7.1178e-09	0.000000000000000E+000	2.23333e+06	65.5	2.37207e-05	0.000000000000000E+000	2.37207e-05	0.0000000E+000	3	4.20342e-07
2	1	0	0	0	0	0	372.127	-0.299994	-0.30009	-0.00140178	-0.000448742	-0.000448742	41	-3.09855e-05	7	5.0117e-09	9.29776e-09	0.000000000000000E+000	9.77266e+06	84.1	3.09855e-05	0.000000000000000E+000	3.09855e-05	0.0000000E+000	3	4.20661e-07
2	0	0	0	0	0	0	390.727	-0.299994	-0.300056	-0.00141399	-0.000474981	-0.000474981	41	-3.82741e-05	7	5.0117e-09	1.14848e-08	0.000000000000000E+000	6.01216e+06	102.7	3.82741e-05	0.000000000000000E+000	3.82741e-05	0.0000000E+000	3	4.24276e-07
2	1	0	0	0	0	0	409.327	-0.299994	-0.300022	-0.00141163	-0.000501223	-0.000501223	41	-4.55636e-05	7	5.0117e-09	1.36722e-08	0.000000000000000E+000	2.85917e+06	121.3	4.55636e-05	0.000000000000000E+000	4.55636e-05	0.0000000E+000	3	4.23518e-07
2	0	0	0	0	0	0	427.927	-0.299994	-0.300048	-0.00140637	-0.000527418	-0.000527418	41	-5.28398e-05	7	5.0117e-09	1.58554e-08	0.000000000000000E+000	6.20899e+06	139.9	5.28398e-05	0.000000000000000E+000	5.28398e-05	0.0000000E+000	3	4.2198e-07
2	0	0	0	0	0	0	446.527	-0.299994	-0.300052	-0.00139751	-0.000553527	-0.000553527	41	-6.00923e-05	7	5.0117e-09	1.80316e-08	0.000000000000000E+000	8.06546e+06	158.5	6.00923e-05	0.000000000000000E+000	6.00923e-05	0.0000000E+000	3	4.19326e-07
2	0	0	0	0	0	0	465.127	-0.299994	-0.300083	-0.00140228	-0.000579561	-0.000579561	41	-6.73242e-05	7	5.0117e-09	2.02015e-08	0.000000000000000E+000	6.30425e+07	177.1	6.73242e-05	0.000000000000000E+000	6.73242e-05	0.0000000E+000	3	4.208e-07
2	0	0	0	0	0	0	483.727	-0.299994	-0.300029	-0.00138767	-0.000605464	-0.000605464	41	-7.45194e-05	7	5.0117e-09	2.23605e-08	0.000000000000000E+000	5.39991e+06	195.7	7.45194e-05	0.000000000000000E+000	7.45194e-05	0.0000000E+000	3	4.16342e-07
2	0	0	0	0	0	0	502.327	-0.299994	-0.300033	-0.00137184	-0.000631127	-0.000631127	41	-8.1648e-05	7	5.0117e-09	2.44995e-08	0.000000000000000E+000	6.39607e+06	214.3	8.1648e-05	0.000000000000000E+000	8.1648e-05	0.0000000E+000	3	4.11597e-07
2	0	0	0	0	0	0	520.927	-0.299994	-0.300064	-0.00135317	-0.000656335	-0.000656335	41	-8.86503e-05	7	5.0117e-09	2.66004e-08	0.000000000000000E+000	2.08339e+07	232.9	8.86503e-05	0.000000000000000E+000	8.86503e-05	0.0000000E+000	3	4.06039e-07
2	0	0	0	0	0	0	539.527	-0.299994	-0.30011	-0.00129005	-0.000680828	-0.000680828	41	-9.54537e-05	7	5.0117e-09	2.86418e-08	0.000000000000000E+000	1.12602e+07	251.5	9.54537e-05	0.000000000000000E+000	9.54537e-05	0.0000000E+000	3	3.87156e-07
2	1	0	0	0	0	0	558.127	-0.299994	-0.300045	-0.00126639	-0.000704589	-0.000704589	41	-0.000102054	7	5.0117e-09	3.06223e-08	0.000000000000000E+000	1.06641e+07	270.1	0.000102054	0.000000000000000E+000	0.000102054	0.0000000E+000	3	3.79972e-07
2	1	0	0	0	0	0	576.727	-0.299994	-0.300083	-0.00126183	-0.000727917	-0.000727917	41	-0.000108534	7	5.0117e-09	3.25667e-08	0.000000000000000E+000	1.03232e+08	288.7	0.000108534	0.000000000000000E+000	0.000108534	0.0000000E+000	3	3.78654e-07
2	0	0	0	0	0	0	595.327	-0.299994	-0.300056	-0.00128566	-0.000752085	-0.000752085	41	-0.000115247	7	5.0117e-09	3.45811e-08	0.000000000000000E+000	1.80329e+07	307.3	0.000115247	0.000000000000000E+000	0.000115247	0.0000000E+000	3	3.85769e-07
2	1	0	0	0	0	0	613.927	-0.299994	-0.300121	-0.00126262	-0.000775626	-0.000775626	41	-0.000121787	7	5.0117e-09	3.65433e-08	0.000000000000000E+000	1.04336e+07	325.9	0.000121787	0.000000000000000E+000	0.000121787	0.0000000E+000	3	3.7894e-07
2	1	0	0	0	0	0	632.527	-0.299994	-0.30006	-0.00125484	-0.000798803	-0.000798803	41	-0.000128225	7	5.0117e-09	3.84752e-08	0.000000000000000E+000	2.41262e+07	344.5	0.000128225	0.000000000000000E+000	0.000128225	0.0000000E+000	3	3.76527e-07
2	0	0	0	0	0	0	651.127	-0.299994	-0.300006	-0.00122896	-0.000822009	-0.000822009	41	-0.000134671	7	5.0117e-09	4.04095e-08	0.000000000000000E+000	6.67256e+06	363.1	0.000134671	0.000000000000000E+000	0.000134671	0.0000000E+000	3	3.68694e-07
2	1	0	0	0	0	0	669.727	-0.299994	-0.300071	-0.00108947	-0.000844322	-0.000844322	41	-0.000140869	7	5.0117e-09	4.22693e-08	0.000000000000000E+000	6.64702e+07	381.7	0.000140869	0.000000000000000E+000	0.000140869	0.0000000E+000	3	3.2692e-07
2	0	0	0	0	0	0	688.327	-0.299994	-0.300113	-0.00124272	-0.000863223	-0.000863223	41	-0.000146119	7	5.0117e-09	4.38448e-08	0.000000000000000E+000	1.53217e+07	400.3	0.000146119	0.000000000000000E+000	0.000146119	0.0000000E+000	3	3.72957e-07
2	0	0	0	0	0	0	706.927	-0.299994	-0.300113	-0.00129392	-0.000887094	-0.000887094	41	-0.00015275	7	5.0117e-09	4.58346e-08	0.000000000000000E+000	1.59892e+07	418.9	0.00015275	0.000000000000000E+000	0.00015275	0.0000000E+000	3	3.88323e-07
2	0	0	0	0	0	0	725.527	-0.299994	-0.300133	-0.00130659	-0.000911415	-0.000911415	41	-0.000159506	7	5.0117e-09	4.78619e-08	0.000000000000000E+000	1.07281e+07	437.5	0.000159506	0.000000000000000E+000	0.000159506	0.0000000E+000	3	3.9215e-07
2	0	0	0	0	0	0	744.127	-0.299994	-0.300064	-0.00131817	-0.00093577	-0.00093577	41	-0.000166271	7	5.0117e-09	4.9892e-08	0.000000000000000E+000	3.90756e+07	456.1	0.000166271	0.000000000000000E+000	0.000166271	0.0000000E+000	3	3.95536e-07
2	0	0	0	0	0	0	762.727	-0.299994	-0.300068	-0.00132098	-0.000960418	-0.000960418	41	-0.000173118	7	5.0117e-09	5.19465e-08	0.000000000000000E+000	5.44581e+07	474.7	0.000173118	0.000000000000000E+000	0.000173118	0.0000000E+000	3	3.96382e-07
2	0	0	0	0	0	0	781.327	-0.299994	-0.300045	-0.00132223	-0.000985145	-0.000985145	41	-0.000179986	7	5.0117e-09	5.40076e-08	0.000000000000000E+000	1.88239e+07	493.3	0.000179986	0.000000000000000E+000	0.000179986	0.0000000E+000	3	3.96728e-07
2	0	0	0	0	0	0	799.927	-0.299994	-0.300018	-0.00132715	-0.0010099	-0.0010099	41	-0.000186863	7	5.0117e-09	5.60711e-08	0.000000000000000E+000	1.10001e+07	511.9	0.000186863	0.000000000000000E+000	0.000186863	0.0000000E+000	3	3.98168e-07
2	1	0	0	0	0	0	801.494	-0.299994	-0.30006	-0.00135709	-0.00101199	-0.00101199	41	-0.000187442	7	5.0117e-09	5.62448e-08	0.000000000000000E+000	3.52683e+07	513.466	0.000187442	0.000000000000000E+000	0.000187442	1122.34	3	4.07209e-07