File: Fig 3/Fig 3_RRDE-np-Fe3O4_25mvs_ring.mpt
mode	ox/red	error	control changes	counter inc.	time/s	control/V	Ewe/V	<I>/mA	cycle number	(Q-Qo)/C	I Range	step time/s	P/W
2	1	1	0	0	0.000000000000000E+000	-0.299996	-0.300244	1.91327	1	0.0000000E+000	39	0.000000000000000E+000	-0.000574449
2	1	0	1	0	1.4218	-0.33554	-0.335893	0.0163823	1	4.70989e-05	39	1.3998	-5.50271e-06
2	1	0	0	0	2.8616	-0.371533	-0.371885	0.0120456	1	6.67134e-05	39	2.8396	-4.47957e-06
2	1	0	1	0	4.3014	-0.407527	-0.407874	0.00964674	1	8.16402e-05	39	4.2794	-3.93466e-06
2	1	0	1	0	5.741	-0.443521	-0.443842	0.00798469	1	9.3585e-05	39	5.719	-3.54394e-06
2	1	0	0	0	7.1808	-0.479514	-0.479849	0.00653301	1	0.000103356	39	7.1588	-3.13486e-06
2	1	0	1	0	8.6206	-0.515508	-0.51585	0.0053865	1	0.000111321	39	8.5986	-2.77863e-06
2	1	0	0	0	10.0604	-0.551502	-0.551849	0.00442992	1	0.000117798	39	10.0384	-2.44465e-06
2	1	0	0	0	11.5	-0.587495	-0.587853	0.00355805	1	0.000122901	39	11.478	-2.09161e-06
2	1	0	1	0	12.9398	-0.623489	-0.623867	0.00275119	1	0.000126778	39	12.9178	-1.71638e-06
2	1	0	0	0	14.3796	-0.659482	-0.659823	0.00184358	1	0.000129424	39	14.3576	-1.21644e-06
2	1	0	1	0	15.8194	-0.695476	-0.695806	0.000832474	1	0.000130788	39	15.7974	-5.7924e-07
2	1	0	1	0	17.259	-0.73147	-0.731838	-0.000373733	1	0.00013059	39	0.7598	2.73512e-07
2	0	0	0	0	18.6988	-0.767463	-0.76781	-0.00230973	1	0.00012812	39	2.1996	1.77344e-06
2	0	0	1	0	20.1386	-0.803457	-0.803806	-0.004926	1	0.000122372	39	3.6394	3.95955e-06
2	0	0	1	0	21.5782	-0.839451	-0.839814	-0.00800643	1	0.000112404	39	5.079	6.72391e-06
2	0	0	0	0	23.018	-0.875445	-0.87579	-0.0122727	1	9.73955e-05	39	6.5188	1.07483e-05
2	0	0	1	0	24.4578	-0.911438	-0.911813	-0.0176098	1	7.51507e-05	39	7.9586	1.60569e-05
2	0	0	0	0	25.8976	-0.947432	-0.947784	-0.0207104	1	4.65778e-05	39	9.3984	1.9629e-05
2	0	0	0	0	27.3372	-0.983425	-0.983755	-0.0242492	1	1.39707e-05	39	10.838	2.38553e-05
2	0	0	1	0	28.777	-1.01942	-1.01976	-0.0349901	1	-2.7861e-05	39	12.2778	3.56816e-05
2	0	0	0	0	30.2168	-1.05541	-1.05575	-0.062186	1	-9.67208e-05	39	13.7176	6.56532e-05
2	0	0	1	0	31.6566	-1.09141	-1.09176	-0.0857651	1	-0.000206269	39	15.1574	9.36351e-05
2	0	0	1	0	33.0962	-1.1274	-1.12776	-0.0852161	1	-0.000332779	39	16.597	9.61031e-05
2	0	0	0	0	34.536	-1.16339	-1.16374	-0.0900001	1	-0.000454662	39	18.0368	0.000104737
2	0	0	1	0	35.9758	-1.19939	-1.19972	-0.132972	1	-0.000614993	39	19.4766	0.00015953
2	0	0	0	0	37.4156	-1.23538	-1.23573	-0.15517	1	-0.000824704	39	20.9164	0.000191749
2	0	0	0	0	38.8552	-1.27137	-1.27172	-0.199859	1	-0.00107701	39	22.356	0.000254164
2	0	0	1	0	40.295	-1.30737	-1.30774	-0.35903	1	-0.00145568	39	23.7958	0.000469519
2	0	0	0	0	41.7348	-1.34336	-1.34373	-0.812065	1	-0.00226938	39	25.2356	0.0010912
2	0	0	1	1	43.103	-1.32247	-1.32283	-0.592787	2	-0.00331702	39	26.6038	0.000784158
2	0	0	1	1	44.5426	-1.28647	-1.28682	-0.364001	2	-0.00398181	39	28.0434	0.000468404
2	0	0	0	1	45.9824	-1.25048	-1.25085	-0.244717	2	-0.00441089	39	29.4832	0.000306104
2	0	0	1	1	47.4222	-1.21448	-1.21483	-0.174626	2	-0.0047085	39	30.923	0.000212141
2	0	0	1	1	48.8618	-1.17849	-1.17885	-0.120493	2	-0.00491998	39	32.3626	0.000142043
2	0	0	0	1	50.3016	-1.1425	-1.14285	-0.0699796	2	-0.00505511	39	33.8024	7.99761e-05
2	0	0	1	1	51.7414	-1.1065	-1.10684	-0.0350984	2	-0.00512798	39	35.2422	3.88482e-05
2	0	0	0	1	53.1812	-1.07051	-1.07085	-0.0124183	2	-0.00516066	39	36.682	1.32981e-05
2	1	0	0	1	54.6208	-1.03452	-1.03489	0.00389864	2	-0.0051654	39	0.3998	-4.03466e-06
2	1	0	1	1	56.0606	-0.998523	-0.998891	0.0185813	2	-0.00515009	39	1.8396	-1.85607e-05
2	1	0	0	1	57.5004	-0.962529	-0.962898	0.0558703	2	-0.00509864	39	3.2794	-5.37974e-05
2	1	0	1	1	58.9402	-0.926535	-0.926856	0.106061	2	-0.00498046	39	4.7192	-9.83035e-05
2	1	0	1	1	60.3798	-0.890542	-0.890895	0.135674	2	-0.00480255	39	6.1588	-0.000120871
2	1	0	0	1	61.8196	-0.854548	-0.854894	0.148731	2	-0.00459592	39	7.5986	-0.000127149
2	1	0	1	1	63.2594	-0.818555	-0.818913	0.147422	2	-0.00437856	39	9.0384	-0.000120726
2	1	0	0	1	64.6992	-0.782561	-0.782923	0.118504	2	-0.00418378	39	10.4782	-9.27799e-05
2	1	0	0	1	66.1388	-0.746567	-0.746923	0.0804184	2	-0.00404004	39	11.9178	-6.00663e-05
2	1	0	1	1	67.5786	-0.710573	-0.710929	0.0507862	2	-0.00394641	39	13.3576	-3.61054e-05
2	1	0	0	1	69.0184	-0.67458	-0.674929	0.0329613	2	-0.00388675	39	14.7974	-2.22466e-05
2	1	0	0	1	70.458	-0.638586	-0.638949	0.0231224	2	-0.00384616	39	16.237	-1.4774e-05
2	1	0	1	1	71.8978	-0.602593	-0.602946	0.0175252	2	-0.00381648	39	17.6768	-1.05667e-05
2	1	0	0	1	73.3376	-0.566599	-0.566946	0.0139952	2	-0.00379318	39	19.1166	-7.93453e-06
2	1	0	1	1	74.7774	-0.530605	-0.530963	0.0119552	2	-0.00377377	39	20.5564	-6.34777e-06
2	1	0	1	1	76.217	-0.494612	-0.494945	0.0105683	2	-0.00375681	39	21.996	-5.23074e-06
2	1	0	0	1	77.6568	-0.458618	-0.458964	0.00983559	2	-0.00374141	39	23.4358	-4.51418e-06
2	1	0	1	1	79.0966	-0.422624	-0.422982	0.00935358	2	-0.0037269	39	24.8756	-3.9564e-06
2	1	0	0	1	80.5364	-0.386631	-0.38696	0.00903134	2	-0.00371292	39	26.3154	-3.49477e-06
2	1	0	0	1	81.976	-0.350637	-0.350991	0.00881341	2	-0.0036993	39	27.755	-3.09342e-06
2	1	0	1	1	83.4158	-0.314643	-0.314987	0.00858198	2	-0.00368597	39	29.1948	-2.70321e-06
2	1	0	1	1	84.7842	-0.319542	-0.319884	0.00519314	2	-0.00367617	39	30.5632	-1.6612e-06
2	1	0	0	1	86.224	-0.355536	-0.355861	0.00365829	2	-0.00367075	39	32.003	-1.30184e-06
2	1	0	0	1	87.6636	-0.39153	-0.391862	0.00263466	2	-0.00366704	39	33.4426	-1.03242e-06
2	1	0	1	1	89.1034	-0.427523	-0.427883	0.0020496	2	-0.00366433	39	34.8824	-8.76989e-07
2	1	0	0	1	90.5432	-0.463517	-0.463853	0.00173801	2	-0.00366245	39	36.3222	-8.0618e-07
2	1	0	0	1	91.9828	-0.499511	-0.499876	0.00112882	2	-0.00366119	39	37.7618	-5.6427e-07
2	1	0	1	1	93.4226	-0.535504	-0.535857	0.000909337	2	-0.00366051	39	39.2016	-4.87275e-07
2	1	0	0	1	94.8624	-0.571498	-0.571831	0.000519457	2	-0.00366048	39	0.24	-2.97042e-07
2	1	0	1	1	96.3022	-0.607492	-0.607822	-2.80726e-05	2	-0.00366107	39	1.6798	1.70631e-08
2	0	0	1	1	97.7418	-0.643485	-0.643834	-0.00056031	2	-0.0036623	39	3.1194	3.60747e-07
2	0	0	0	1	99.1816	-0.679479	-0.679818	-0.000952717	2	-0.0036642	39	4.5592	6.47674e-07
2	0	0	1	1	100.621	-0.715473	-0.715816	-0.00148185	2	-0.00366681	39	5.999	1.06073e-06
2	0	0	0	1	102.061	-0.751466	-0.751819	-0.00245021	2	-0.00367045	39	7.4388	1.84211e-06
2	0	0	0	1	103.501	-0.78746	-0.787791	-0.00305813	2	-0.00367529	39	8.8784	2.40917e-06
2	0	0	1	1	104.941	-0.823454	-0.823812	-0.00371425	2	-0.00368124	39	10.3182	3.05984e-06
2	0	0	0	1	106.38	-0.859447	-0.859825	-0.00468784	2	-0.00368814	39	11.758	4.03072e-06
2	0	0	1	1	107.82	-0.89544	-0.8958	-0.00605728	2	-0.00369669	39	13.1977	5.42611e-06
2	0	0	1	1	109.26	-0.931435	-0.931786	-0.00766232	2	-0.00370765	39	14.6374	7.13964e-06
2	0	0	0	1	110.7	-0.967428	-0.967829	-0.00971172	2	-0.00372122	39	16.0772	9.39929e-06
2	0	0	1	1	112.139	-1.00342	-1.00379	-0.0111167	2	-0.00373716	39	17.517	1.11588e-05
2	0	0	1	1	113.579	-1.03942	-1.0398	-0.0122163	2	-0.00375508	39	18.9566	1.27026e-05
2	0	0	0	1	115.019	-1.07541	-1.07576	-0.0127338	2	-0.00377395	39	20.3964	1.36985e-05
2	0	0	1	1	116.459	-1.1114	-1.11174	-0.0132621	2	-0.00379366	39	21.8362	1.4744e-05
2	0	0	0	1	117.898	-1.1474	-1.14777	-0.0141461	2	-0.00381441	39	23.276	1.62365e-05
2	0	0	0	1	119.338	-1.18339	-1.18374	-0.0154844	2	-0.00383675	39	24.7156	1.83296e-05
2	0	0	1	1	120.778	-1.21938	-1.21975	-0.0210678	2	-0.00386297	39	26.1554	2.56974e-05
2	0	0	0	1	122.218	-1.25538	-1.25575	-0.033219	2	-0.00390331	39	27.5952	4.17149e-05
2	0	0	1	1	123.657	-1.29137	-1.29171	-0.0560462	2	-0.0039653	39	29.035	7.23953e-05
2	0	0	1	1	125.097	-1.32736	-1.32774	-0.280174	2	-0.00414066	39	30.4746	0.000371999
2	0	0	0	0	126.465	-1.33846	-1.33883	-0.710768	3	-0.00497299	39	31.8428	0.000951597
2	0	0	1	0	127.905	-1.30247	-1.30281	-0.376754	3	-0.00573363	39	33.2826	0.000490838
2	0	0	0	0	129.345	-1.26648	-1.26684	-0.216444	3	-0.00614403	39	34.7224	0.000274201
2	0	0	0	0	130.784	-1.23048	-1.23085	-0.142627	3	-0.00639356	39	36.162	0.000175552
2	0	0	1	0	132.224	-1.19449	-1.19485	-0.1031	3	-0.0065683	39	37.6018	0.000123189
2	0	0	0	0	133.664	-1.15849	-1.15885	-0.0652046	3	-0.00668875	39	39.0416	7.55623e-05
2	0	0	1	0	135.104	-1.1225	-1.12283	-0.0341078	3	-0.00675726	39	40.4812	3.82972e-05
2	0	0	1	0	136.543	-1.08651	-1.08685	-0.0156743	3	-0.00679158	39	41.921	1.70356e-05
2	0	0	0	0	137.983	-1.05051	-1.05086	0.00141278	3	-0.00680125	39	0.12	-1.48464e-06
2	1	0	1	0	139.423	-1.01452	-1.01487	0.0183225	3	-0.00678508	39	1.5598	-1.85949e-05
2	1	0	1	0	140.863	-0.978526	-0.978886	0.0424077	3	-0.00674268	39	2.9994	-4.15123e-05
2	1	0	0	0	142.302	-0.942533	-0.942889	0.0733702	3	-0.00665823	39	4.4392	-6.918e-05
2	1	0	1	0	143.742	-0.906539	-0.906883	0.0902566	3	-0.00653639	39	5.879	-8.18522e-05
2	1	0	0	0	145.182	-0.870545	-0.870881	0.082014	3	-0.00640943	39	7.3188	-7.14244e-05
2	1	0	0	0	146.622	-0.834552	-0.834887	0.0694125	3	-0.00629997	39	8.7584	-5.79516e-05
2	1	0	1	0	148.061	-0.798558	-0.798882	0.0631964	3	-0.00620394	39	10.1982	-5.04864e-05
2	1	0	0	0	149.501	-0.762564	-0.76294	0.0519685	3	-0.00611894	39	11.638	-3.96488e-05
2	1	0	1	0	150.941	-0.726571	-0.726925	0.0344324	3	-0.0060559	39	13.0778	-2.50298e-05
2	1	0	1	0	152.381	-0.690577	-0.690893	0.021224	3	-0.00601577	39	14.5174	-1.46635e-05
2	1	0	0	0	153.82	-0.654583	-0.654924	0.0145023	3	-0.00598962	39	15.9572	-9.4979e-06
2	1	0	1	0	155.26	-0.61859	-0.618942	0.0114265	3	-0.00597019	39	17.397	-7.07232e-06
2	1	0	1	0	156.7	-0.582596	-0.582949	0.0100571	3	-0.00595401	39	18.8366	-5.86279e-06
2	1	0	0	0	158.14	-0.546602	-0.546937	0.00905306	3	-0.0059394	39	20.2764	-4.95145e-06
2	1	0	1	0	159.579	-0.510609	-0.510972	0.00838139	3	-0.00592599	39	21.7162	-4.28266e-06
2	1	0	0	0	161.019	-0.474615	-0.474962	0.00799846	3	-0.00591336	39	23.156	-3.79896e-06
2	1	0	0	0	162.459	-0.438621	-0.438955	0.00750443	3	-0.00590133	39	24.5956	-3.2941e-06
2	1	0	1	0	163.899	-0.402628	-0.40295	0.00728612	3	-0.00588975	39	26.0354	-2.93594e-06
2	1	0	0	0	165.338	-0.366634	-0.366965	0.0073227	3	-0.00587835	39	27.4752	-2.68718e-06
2	1	0	1	0	166.778	-0.33064	-0.330991	0.00734932	3	-0.00586705	39	28.915	-2.43256e-06
2	1	0	0	0	168.146	-0.303545	-0.303862	0.00565323	3	-0.00585665	39	30.2832	-1.7178e-06
2	1	0	1	0	169.586	-0.339539	-0.339857	0.00339399	3	-0.00585133	39	31.723	-1.15347e-06
2	1	0	0	0	170.04	-0.350887	-0.351225	0.00295375	3	-0.00585015	39	32.1768	-1.03743e-06