File: Fig 3/Fig 3_RRDE-np-Fe3O4_100mvs_disk.mpt
mode	ox/red	error	control changes	Ns changes	counter inc.	Ns	time/s	control/V	Ewe/V	<I>/mA	dQ/C	(Q-Qo)/C	I Range	Q charge/discharge/mA.h	half cycle	Energy charge/W.h	Energy discharge/W.h	Capacitance charge/µF	Capacitance discharge/µF	step time/s	Q discharge/mA.h	Q charge/mA.h	Capacity/mA.h	Efficiency/%	cycle number	P/W
2	1	0	1	0	0	0	0.1	-0.300024	-0.300417	0.0465407	4.65407e-06	4.65407e-06	41	1.2928e-06	0	3.88378e-10	0.000000000000000E+000	0.000000000000000E+000	0.000000000000000E+000	0.1	0.000000000000000E+000	1.2928e-06	1.2928e-06	0.0000000E+000	0.000000000000000E+000	-1.39816e-05
2	1	0	1	0	0	0	1.8	-0.300024	-0.300348	0.00227461	1.79466e-05	1.79466e-05	41	4.98518e-06	0	1.49752e-09	0.000000000000000E+000	260688	0.000000000000000E+000	1.8	0.000000000000000E+000	4.98518e-06	4.98518e-06	0.0000000E+000	0.000000000000000E+000	-6.83176e-07
2	0	0	1	0	0	0	3.5	-0.300024	-0.300413	-0.000173762	1.92304e-05	1.92304e-05	41	-7.18085e-09	1	1.6068e-09	2.15718e-12	1.26445e+06	848.746	0.1	7.18085e-09	0.000000000000000E+000	7.18085e-09	0.0000000E+000	0.000000000000000E+000	5.22003e-08
2	0	0	1	0	0	0	5.2	-0.300024	-0.300394	-0.00113651	1.79642e-05	1.79642e-05	41	-3.5891e-07	1	1.6068e-09	1.07811e-10	1.26445e+06	113198	1.8	3.5891e-07	0.000000000000000E+000	3.5891e-07	0.0000000E+000	0.000000000000000E+000	3.41402e-07
2	0	0	1	0	0	0	6.9	-0.300024	-0.300352	-0.00119451	1.56838e-05	1.56838e-05	41	-9.9237e-07	1	1.6068e-09	2.98078e-10	1.26445e+06	116609	3.5	9.9237e-07	0.000000000000000E+000	9.9237e-07	0.0000000E+000	0.000000000000000E+000	3.58773e-07
2	1	0	1	0	0	0	8.6	-0.300024	-0.300344	0.00704234	1.79581e-05	1.79581e-05	41	7.19914e-07	2	2.16241e-10	0.000000000000000E+000	61675.7	0.000000000000000E+000	1.1	0.000000000000000E+000	7.19914e-07	7.19914e-07	0.0000000E+000	1	-2.11513e-06
2	1	0	1	0	0	0	10.3	-0.300024	-0.30036	0.0103337	5.04351e-05	5.04351e-05	41	9.74132e-06	2	2.92587e-09	0.000000000000000E+000	1.30891e+06	0.000000000000000E+000	2.8	0.000000000000000E+000	9.74132e-06	9.74132e-06	0.0000000E+000	1	-3.10381e-06
2	1	0	1	0	0	0	12	-0.300024	-0.300409	0.00100588	5.73225e-05	5.73225e-05	41	1.16545e-05	2	3.5005e-09	0.000000000000000E+000	1.83548e+06	0.000000000000000E+000	4.5	0.000000000000000E+000	1.16545e-05	1.16545e-05	0.0000000E+000	1	-3.02175e-07
2	0	0	1	0	0	0	13.7	-0.300024	-0.300375	-0.000752779	5.70638e-05	5.70638e-05	41	-1.38157e-07	3	3.52042e-09	4.14993e-11	689300	8674.04	1	1.38157e-07	0.000000000000000E+000	1.38157e-07	0.0000000E+000	1	2.26116e-07
2	1	0	1	0	0	0	15.4	-0.300024	-0.300329	0.00267747	5.70257e-05	5.70257e-05	41	2.01578e-07	4	6.05456e-11	0.000000000000000E+000	18993.6	0.000000000000000E+000	0.5	0.000000000000000E+000	2.01578e-07	2.01578e-07	0.0000000E+000	2	-8.04121e-07
2	1	0	1	0	0	0	17.1	-0.300024	-0.300341	0.00370938	6.65779e-05	6.65779e-05	41	2.85499e-06	4	8.57541e-10	0.000000000000000E+000	384471	0.000000000000000E+000	2.2	0.000000000000000E+000	2.85499e-06	2.85499e-06	0.0000000E+000	2	-1.11408e-06
2	1	0	1	0	0	0	18.8	-0.300024	-0.300398	0.000670213	6.96457e-05	6.96457e-05	41	3.70715e-06	4	1.1135e-09	0.000000000000000E+000	435611	0.000000000000000E+000	3.9	0.000000000000000E+000	3.70715e-06	3.70715e-06	0.0000000E+000	2	-2.01331e-07
2	0	0	1	0	0	0	20.5	-0.300024	-0.300386	-0.000612819	6.95404e-05	6.95404e-05	41	-9.08376e-08	5	1.132e-09	2.72844e-11	507522	5033.4	0.8	9.08376e-08	0.000000000000000E+000	9.08376e-08	0.0000000E+000	2	1.84082e-07
2	0	0	1	0	0	0	22.2	-0.300024	-0.300363	-0.00127094	6.78495e-05	6.78495e-05	41	-5.60542e-07	5	1.132e-09	1.68367e-10	507522	48022.2	2.5	5.60542e-07	0.000000000000000E+000	5.60542e-07	0.0000000E+000	2	3.81745e-07
2	0	0	1	0	0	0	23.9	-0.300024	-0.300398	-0.00189487	6.5127e-05	6.5127e-05	41	-1.31679e-06	5	1.132e-09	3.95518e-10	507522	61988.6	4.2	1.31679e-06	0.000000000000000E+000	1.31679e-06	0.0000000E+000	2	5.69213e-07
2	0	0	1	0	0	0	25.6	-0.300024	-0.30039	-0.0021999	6.15889e-05	6.15889e-05	41	-2.29959e-06	5	1.132e-09	6.90721e-10	507522	120252	5.9	2.29959e-06	0.000000000000000E+000	2.29959e-06	0.0000000E+000	2	6.60827e-07
2	0	0	1	0	0	0	27.3	-0.300024	-0.300363	-0.00195955	5.78764e-05	5.78764e-05	41	-3.33084e-06	5	1.132e-09	1.00048e-09	507522	285154	7.6	3.33084e-06	0.000000000000000E+000	3.33084e-06	0.0000000E+000	2	5.88576e-07
2	1	0	1	0	0	0	29	-0.300024	-0.300367	0.00317622	5.85631e-05	5.85631e-05	41	4.66993e-07	6	1.4028e-10	0.000000000000000E+000	39979.3	0.000000000000000E+000	0.8	0.000000000000000E+000	4.66993e-07	4.66993e-07	0.0000000E+000	3	-9.54031e-07
2	0	0	1	0	0	0	30.7	-0.300024	-0.300348	-0.000742082	6.04875e-05	6.04875e-05	41	-5.47222e-08	7	3.1728e-10	1.64361e-11	333141	12810.5	0.3	5.47222e-08	0.000000000000000E+000	5.47222e-08	0.0000000E+000	3	2.22883e-07
2	0	0	1	0	0	0	32.4	-0.300024	-0.300302	-0.00184062	5.79869e-05	5.79869e-05	41	-7.49335e-07	7	3.1728e-10	2.25069e-10	333141	44068.5	2	7.49335e-07	0.000000000000000E+000	7.49335e-07	0.0000000E+000	3	5.52744e-07
2	0	0	1	0	0	0	34.1	-0.300024	-0.300383	-0.00222073	5.4456e-05	5.4456e-05	41	-1.73013e-06	7	3.1728e-10	5.19665e-10	333141	325534	3.7	1.73013e-06	0.000000000000000E+000	1.73013e-06	0.0000000E+000	3	6.6707e-07
2	0	0	1	0	0	0	35.8	-0.300024	-0.30036	-0.00141938	5.08872e-05	5.08872e-05	41	-2.72148e-06	7	3.1728e-10	8.17433e-10	333141	2.5288e+06	5.4	2.72148e-06	0.000000000000000E+000	2.72148e-06	0.0000000E+000	3	4.26324e-07
2	1	0	1	0	0	0	37.5	-0.300024	-0.300386	0.00432285	5.50019e-05	5.50019e-05	41	1.21554e-06	8	3.65113e-10	0.000000000000000E+000	380393	0.000000000000000E+000	1.2	0.000000000000000E+000	1.21554e-06	1.21554e-06	0.0000000E+000	4	-1.29853e-06
2	1	0	1	0	0	0	39.2	-0.300024	-0.300341	0.000137024	5.78949e-05	5.78949e-05	41	2.01914e-06	8	6.06499e-10	0.000000000000000E+000	126704	0.000000000000000E+000	2.9	0.000000000000000E+000	2.01914e-06	2.01914e-06	0.0000000E+000	4	-4.1154e-08
2	0	0	1	0	0	0	40.9	-0.300024	-0.300383	-0.00119207	5.68264e-05	5.68264e-05	41	-2.97688e-07	9	6.06765e-10	8.94176e-11	477518	34980.1	1.5	2.97688e-07	0.000000000000000E+000	2.97688e-07	0.0000000E+000	4	3.58078e-07
2	0	0	1	0	0	0	42.6	-0.300024	-0.300379	-0.0018395	5.41405e-05	5.41405e-05	41	-1.04378e-06	9	6.06765e-10	3.13518e-10	477518	140562	3.2	1.04378e-06	0.000000000000000E+000	1.04378e-06	0.0000000E+000	4	5.52546e-07
2	0	0	1	0	0	0	44.3	-0.300024	-0.30036	-0.00216229	5.06946e-05	5.06946e-05	41	-2.00098e-06	9	6.06765e-10	6.01024e-10	477518	944182	4.9	2.00098e-06	0.000000000000000E+000	2.00098e-06	0.0000000E+000	4	6.49464e-07
2	0	0	1	0	0	0	46	-0.300024	-0.300352	-0.00233675	4.68394e-05	4.68394e-05	41	-3.07185e-06	9	6.06765e-10	9.22645e-10	477518	0.000000000000000E+000	6.6	3.07185e-06	0.000000000000000E+000	3.07185e-06	0.0000000E+000	4	7.01848e-07
2	0	0	1	0	0	0	47.7	-0.300024	-0.300341	-0.00228974	4.27955e-05	4.27955e-05	41	-4.19516e-06	9	6.06765e-10	1.26005e-09	477518	1.31285e+06	8.3	4.19516e-06	0.000000000000000E+000	4.19516e-06	0.0000000E+000	4	6.87701e-07
2	1	0	1	0	0	0	49.4	-0.300024	-0.300348	0.000188888	4.04257e-05	4.04257e-05	41	5.2469e-09	10	1.57586e-12	0.000000000000000E+000	0.000000000000000E+000	0.000000000000000E+000	0.000000000000000E+000	0.000000000000000E+000	5.2469e-09	5.2469e-09	0.0000000E+000	5	-5.67323e-08
2	0	0	1	0	0	0	51.1	-0.300024	-0.300394	-0.000777073	4.10631e-05	4.10631e-05	41	-5.78012e-08	11	7.21193e-11	1.73609e-11	113744	4530.92	0.4	5.78012e-08	0.000000000000000E+000	5.78012e-08	0.0000000E+000	5	2.33428e-07
2	0	0	1	0	0	0	52.8	-0.300024	-0.300329	-0.00206726	3.82294e-05	3.82294e-05	41	-8.44952e-07	11	7.21193e-11	2.53782e-10	113744	159729	2.1	8.44952e-07	0.000000000000000E+000	8.44952e-07	0.0000000E+000	5	6.20858e-07
2	0	0	1	0	0	0	54.5	-0.300024	-0.300321	-0.00234617	3.44179e-05	3.44179e-05	41	-1.90369e-06	11	7.21193e-11	5.71779e-10	113744	256364	3.8	1.90369e-06	0.000000000000000E+000	1.90369e-06	0.0000000E+000	5	7.04606e-07
2	0	0	1	0	0	0	56.2	-0.300024	-0.300383	-0.00235853	3.03546e-05	3.03546e-05	41	-3.0324e-06	11	7.21193e-11	9.10789e-10	113744	317144	5.5	3.0324e-06	0.000000000000000E+000	3.0324e-06	0.0000000E+000	5	7.08461e-07
2	1	0	1	0	0	0	57.9	-0.300024	-0.300344	0.000897498	2.83702e-05	2.83702e-05	41	5.20905e-08	12	1.56458e-11	0.000000000000000E+000	24388.8	0.000000000000000E+000	0.3	0.000000000000000E+000	5.20905e-08	5.20905e-08	0.0000000E+000	6	-2.69558e-07
2	0	0	1	0	0	0	59.6	-0.300024	-0.300413	-0.00102206	2.8719e-05	2.8719e-05	41	-1.2621e-07	13	8.26601e-11	3.79117e-11	25910.9	29718.5	0.6	1.2621e-07	0.000000000000000E+000	1.2621e-07	0.0000000E+000	6	3.07039e-07
2	0	0	1	0	0	0	61.3	-0.300024	-0.300398	-2.28768e-05	2.76554e-05	2.76554e-05	41	-4.21662e-07	13	8.26601e-11	1.26658e-10	25910.9	0.000000000000000E+000	2.3	4.21662e-07	0.000000000000000E+000	4.21662e-07	0.0000000E+000	6	6.87215e-09
2	0	0	1	0	0	0	63	-0.300024	-0.300302	-0.000516097	2.73084e-05	2.73084e-05	41	-5.18057e-07	13	8.26601e-11	1.5561e-10	25910.9	19513.3	4	5.18057e-07	0.000000000000000E+000	5.18057e-07	0.0000000E+000	6	1.54985e-07
2	0	0	1	0	0	0	64.7	-0.300024	-0.300329	-0.00136081	2.56914e-05	2.56914e-05	41	-9.67204e-07	13	8.26601e-11	2.90528e-10	25910.9	50621.4	5.7	9.67204e-07	0.000000000000000E+000	9.67204e-07	0.0000000E+000	6	4.08692e-07
2	0	0	1	0	0	0	66.4	-0.300024	-0.300314	-0.00207337	2.26717e-05	2.26717e-05	41	-1.80601e-06	13	8.26601e-11	5.42474e-10	25910.9	77251.9	7.4	1.80601e-06	0.000000000000000E+000	1.80601e-06	0.0000000E+000	6	6.22662e-07
2	0	0	1	0	0	0	68.1	-0.300024	-0.300383	-0.00240707	1.88244e-05	1.88244e-05	41	-2.87472e-06	13	8.26601e-11	8.63479e-10	25910.9	675592	9.1	2.87472e-06	0.000000000000000E+000	2.87472e-06	0.0000000E+000	6	7.23041e-07
2	0	0	1	0	0	0	69.8	-0.300024	-0.30036	-0.00251523	1.46372e-05	1.46372e-05	41	-4.03783e-06	13	8.26601e-11	1.21282e-09	25910.9	380166	10.8	4.03783e-06	0.000000000000000E+000	4.03783e-06	0.0000000E+000	6	7.55472e-07
2	0	0	1	0	0	0	71.5	-0.300024	-0.300371	-0.00260559	1.03044e-05	1.03044e-05	41	-5.24138e-06	13	8.26601e-11	1.57433e-09	25910.9	705839	12.5	5.24138e-06	0.000000000000000E+000	5.24138e-06	0.0000000E+000	6	7.82645e-07
2	0	0	1	0	0	0	73.2	-0.300024	-0.300409	-0.00259672	5.88416e-06	5.88416e-06	41	-6.46922e-06	13	8.26601e-11	1.94314e-09	25910.9	2.02976e+06	14.2	6.46922e-06	0.000000000000000E+000	6.46922e-06	0.0000000E+000	6	7.80079e-07
2	0	0	1	0	0	0	73.803	-0.300024	-0.300386	-0.00265508	4.30656e-06	4.30656e-06	41	-6.90745e-06	13	8.26601e-11	2.07477e-09	25910.9	2.16164e+06	14.803	6.90745e-06	0.000000000000000E+000	6.90745e-06	2509.92	6	7.9755e-07