File: Fig 3/Fig 3_RRDE-np-Fe2O3_5mVs.mpt
mode	ox/red	error	control changes	Ns changes	counter inc.	Ns	time/s	control/V	Ewe/V	<I>/mA	dQ/C	(Q-Qo)/C	I Range	Q charge/discharge/mA.h	half cycle	Energy charge/W.h	Energy discharge/W.h	Capacitance charge/µF	Capacitance discharge/µF	step time/s	Q discharge/mA.h	Q charge/mA.h	Capacity/mA.h	Efficiency/%	cycle number	P/W
2	0	1	0	0	0	0	0.1	-0.299985	-0.300379	-0.124165	-1.24165e-05	-1.24165e-05	41	-3.44902e-06	0	0.000000000000000E+000	1.03601e-09	0.000000000000000E+000	0.000000000000000E+000	0.1	3.44902e-06	0.000000000000000E+000	3.44902e-06	0.0000000E+000	0.000000000000000E+000	3.72965e-05
2	0	0	0	0	0	0	1.8	-0.299985	-0.30041	-0.00953831	-3.60957e-05	-3.60957e-05	41	-1.00266e-05	0	0.000000000000000E+000	3.01208e-09	0.000000000000000E+000	1.17933e+06	1.8	1.00266e-05	0.000000000000000E+000	1.00266e-05	0.0000000E+000	0.000000000000000E+000	2.8654e-06
2	0	0	0	0	0	0	3.5	-0.299985	-0.300433	-0.00766256	-5.01411e-05	-5.01411e-05	41	-1.39281e-05	0	0.000000000000000E+000	4.18416e-09	0.000000000000000E+000	936779	3.5	1.39281e-05	0.000000000000000E+000	1.39281e-05	0.0000000E+000	0.000000000000000E+000	2.30208e-06
2	0	0	0	0	0	0	5.2	-0.299985	-0.300448	-0.00668239	-6.23777e-05	-6.23777e-05	41	-1.73271e-05	0	0.000000000000000E+000	5.20531e-09	0.000000000000000E+000	906081	5.2	1.73271e-05	0.000000000000000E+000	1.73271e-05	0.0000000E+000	0.000000000000000E+000	2.00771e-06
2	0	0	0	0	0	0	6.9	-0.299985	-0.300433	-0.00564091	-7.27375e-05	-7.27375e-05	41	-2.02049e-05	0	0.000000000000000E+000	6.06983e-09	0.000000000000000E+000	1.35895e+06	6.9	2.02049e-05	0.000000000000000E+000	2.02049e-05	0.0000000E+000	0.000000000000000E+000	1.69471e-06
2	0	0	0	0	0	0	8.6	-0.299985	-0.300383	-0.00500621	-8.17733e-05	-8.17733e-05	41	-2.27148e-05	0	0.000000000000000E+000	6.82387e-09	0.000000000000000E+000	2.11066e+07	8.6	2.27148e-05	0.000000000000000E+000	2.27148e-05	0.0000000E+000	0.000000000000000E+000	1.50378e-06
2	0	0	0	0	0	0	10.3	-0.299985	-0.300414	-0.00461936	-8.99313e-05	-8.99313e-05	41	-2.49809e-05	0	0.000000000000000E+000	7.50462e-09	0.000000000000000E+000	2.60812e+06	10.3	2.49809e-05	0.000000000000000E+000	2.49809e-05	0.0000000E+000	0.000000000000000E+000	1.38772e-06
2	0	0	0	0	0	0	12	-0.299985	-0.300448	-0.00427251	-9.74608e-05	-9.74608e-05	41	-2.70724e-05	0	0.000000000000000E+000	8.13292e-09	0.000000000000000E+000	1.41569e+06	12	2.70724e-05	0.000000000000000E+000	2.70724e-05	0.0000000E+000	0.000000000000000E+000	1.28367e-06
2	0	0	0	0	0	0	13.7	-0.299985	-0.300387	-0.0039894	-0.000104508	-0.000104508	41	-2.903e-05	0	0.000000000000000E+000	8.72099e-09	0.000000000000000E+000	1.35919e+07	13.7	2.903e-05	0.000000000000000E+000	2.903e-05	0.0000000E+000	0.000000000000000E+000	1.19836e-06
2	0	0	0	0	0	0	15.4	-0.299985	-0.300421	-0.00381889	-0.00011118	-0.00011118	41	-3.08835e-05	0	0.000000000000000E+000	9.27779e-09	0.000000000000000E+000	2.6402e+06	15.4	3.08835e-05	0.000000000000000E+000	3.08835e-05	0.0000000E+000	0.000000000000000E+000	1.14728e-06
2	0	0	0	0	0	0	17.1	-0.299985	-0.30041	-0.00375495	-0.000117613	-0.000117613	41	-3.26702e-05	0	0.000000000000000E+000	9.81454e-09	0.000000000000000E+000	3.84267e+06	17.1	3.26702e-05	0.000000000000000E+000	3.26702e-05	0.0000000E+000	0.000000000000000E+000	1.12802e-06
2	0	0	0	0	0	0	18.8	-0.299985	-0.300448	-0.003533	-0.000123809	-0.000123809	41	-3.43913e-05	0	0.000000000000000E+000	1.03316e-08	0.000000000000000E+000	1.79841e+06	18.8	3.43913e-05	0.000000000000000E+000	3.43913e-05	0.0000000E+000	0.000000000000000E+000	1.06148e-06
2	0	0	0	0	0	0	20.5	-0.299985	-0.300364	-0.00345615	-0.000129789	-0.000129789	41	-3.60524e-05	0	0.000000000000000E+000	1.08306e-08	0.000000000000000E+000	8.48925e+06	20.5	3.60524e-05	0.000000000000000E+000	3.60524e-05	0.0000000E+000	0.000000000000000E+000	1.0381e-06
2	0	0	0	0	0	0	22.2	-0.299985	-0.30041	-0.00339214	-0.000135649	-0.000135649	41	-3.76802e-05	0	0.000000000000000E+000	1.13196e-08	0.000000000000000E+000	4.43196e+06	22.2	3.76802e-05	0.000000000000000E+000	3.76802e-05	0.0000000E+000	0.000000000000000E+000	1.01903e-06
2	0	0	0	0	0	0	23.9	-0.299985	-0.300375	-0.0033309	-0.000141365	-0.000141365	41	-3.92681e-05	0	0.000000000000000E+000	1.17966e-08	0.000000000000000E+000	3.70581e+07	23.9	3.92681e-05	0.000000000000000E+000	3.92681e-05	0.0000000E+000	0.000000000000000E+000	1.00052e-06
2	0	0	0	0	0	0	25.6	-0.299985	-0.300463	-0.00326909	-0.000146954	-0.000146954	41	-4.08206e-05	0	0.000000000000000E+000	1.2263e-08	0.000000000000000E+000	1.74795e+06	25.6	4.08206e-05	0.000000000000000E+000	4.08206e-05	0.0000000E+000	0.000000000000000E+000	9.82241e-07
2	0	0	0	0	0	0	27.3	-0.299985	-0.300391	-0.00318616	-0.000152435	-0.000152435	41	-4.2343e-05	0	0.000000000000000E+000	1.27203e-08	0.000000000000000E+000	1.32509e+07	27.3	4.2343e-05	0.000000000000000E+000	4.2343e-05	0.0000000E+000	0.000000000000000E+000	9.57092e-07
2	0	0	0	0	0	0	29	-0.299985	-0.300375	-0.00315523	-0.000157841	-0.000157841	41	-4.38449e-05	0	0.000000000000000E+000	1.31715e-08	0.000000000000000E+000	4.13772e+07	29	4.38449e-05	0.000000000000000E+000	4.38449e-05	0.0000000E+000	0.000000000000000E+000	9.47753e-07
2	0	0	0	0	0	0	30.7	-0.299985	-0.300394	-0.00309892	-0.000163166	-0.000163166	41	-4.53239e-05	0	0.000000000000000E+000	1.36158e-08	0.000000000000000E+000	1.06104e+07	30.7	4.53239e-05	0.000000000000000E+000	4.53239e-05	0.0000000E+000	0.000000000000000E+000	9.30898e-07
2	0	0	0	0	0	0	32.4	-0.299985	-0.300387	-0.0030528	-0.000168432	-0.000168432	41	-4.67866e-05	0	0.000000000000000E+000	1.40552e-08	0.000000000000000E+000	2.19055e+07	32.4	4.67866e-05	0.000000000000000E+000	4.67866e-05	0.0000000E+000	0.000000000000000E+000	9.17021e-07
2	0	0	0	0	0	0	34.1	-0.299985	-0.300406	-0.00305401	-0.000173632	-0.000173632	41	-4.82312e-05	0	0.000000000000000E+000	1.44892e-08	0.000000000000000E+000	6.48069e+06	34.1	4.82312e-05	0.000000000000000E+000	4.82312e-05	0.0000000E+000	0.000000000000000E+000	9.17441e-07
2	0	0	0	0	0	0	35.8	-0.299985	-0.300391	-0.00298302	-0.00017876	-0.00017876	41	-4.96556e-05	0	0.000000000000000E+000	1.49171e-08	0.000000000000000E+000	1.55394e+07	35.8	4.96556e-05	0.000000000000000E+000	4.96556e-05	0.0000000E+000	0.000000000000000E+000	8.9607e-07
2	0	0	0	0	0	0	37.5	-0.299985	-0.300402	-0.00299249	-0.000183837	-0.000183837	41	-5.10658e-05	0	0.000000000000000E+000	1.53408e-08	0.000000000000000E+000	7.99034e+06	37.5	5.10658e-05	0.000000000000000E+000	5.10658e-05	0.0000000E+000	0.000000000000000E+000	8.98951e-07
2	0	0	0	0	0	0	39.2	-0.299985	-0.300402	-0.0029535	-0.000188837	-0.000188837	41	-5.24548e-05	0	0.000000000000000E+000	1.5758e-08	0.000000000000000E+000	8.20767e+06	39.2	5.24548e-05	0.000000000000000E+000	5.24548e-05	0.0000000E+000	0.000000000000000E+000	8.87237e-07
2	0	0	0	0	0	0	40.9	-0.299985	-0.300429	-0.0028913	-0.000193792	-0.000193792	41	-5.38311e-05	0	0.000000000000000E+000	1.61715e-08	0.000000000000000E+000	3.89609e+06	40.9	5.38311e-05	0.000000000000000E+000	5.38311e-05	0.0000000E+000	0.000000000000000E+000	8.68629e-07
2	0	0	0	0	0	0	42.6	-0.299985	-0.300406	-0.00290128	-0.000198697	-0.000198697	41	-5.51936e-05	0	0.000000000000000E+000	1.65808e-08	0.000000000000000E+000	7.4162e+06	42.6	5.51936e-05	0.000000000000000E+000	5.51936e-05	0.0000000E+000	0.000000000000000E+000	8.71561e-07
2	0	0	0	0	0	0	44.3	-0.299985	-0.300398	-0.00289575	-0.000203584	-0.000203584	41	-5.65512e-05	0	0.000000000000000E+000	1.69887e-08	0.000000000000000E+000	1.06074e+07	44.3	5.65512e-05	0.000000000000000E+000	5.65512e-05	0.0000000E+000	0.000000000000000E+000	8.69878e-07
2	0	0	0	0	0	0	46	-0.299985	-0.300391	-0.00280933	-0.000208422	-0.000208422	41	-5.78949e-05	0	0.000000000000000E+000	1.73924e-08	0.000000000000000E+000	1.81178e+07	46	5.78949e-05	0.000000000000000E+000	5.78949e-05	0.0000000E+000	0.000000000000000E+000	8.43896e-07
2	0	0	0	0	0	0	47.7	-0.299985	-0.300429	-0.00282727	-0.000213241	-0.000213241	41	-5.92337e-05	0	0.000000000000000E+000	1.77946e-08	0.000000000000000E+000	4.28712e+06	47.7	5.92337e-05	0.000000000000000E+000	5.92337e-05	0.0000000E+000	0.000000000000000E+000	8.49394e-07
2	0	0	0	0	0	0	49.4	-0.299985	-0.300402	-0.00277207	-0.000217988	-0.000217988	41	-6.05523e-05	0	0.000000000000000E+000	1.81907e-08	0.000000000000000E+000	9.51167e+06	49.4	6.05523e-05	0.000000000000000E+000	6.05523e-05	0.0000000E+000	0.000000000000000E+000	8.32734e-07
2	0	0	0	0	0	0	51.1	-0.299985	-0.300406	-0.00277606	-0.000222703	-0.000222703	41	-6.18619e-05	0	0.000000000000000E+000	1.85841e-08	0.000000000000000E+000	8.33074e+06	51.1	6.18619e-05	0.000000000000000E+000	6.18619e-05	0.0000000E+000	0.000000000000000E+000	8.33945e-07
2	0	0	0	0	0	0	52.8	-0.299985	-0.300391	-0.00276604	-0.000227417	-0.000227417	41	-6.31714e-05	0	0.000000000000000E+000	1.89775e-08	0.000000000000000E+000	1.9769e+07	52.8	6.31714e-05	0.000000000000000E+000	6.31714e-05	0.0000000E+000	0.000000000000000E+000	8.30893e-07
2	0	0	0	0	0	0	54.5	-0.299985	-0.300436	-0.00273787	-0.000232075	-0.000232075	41	-6.44652e-05	0	0.000000000000000E+000	1.93662e-08	0.000000000000000E+000	4.04736e+06	54.5	6.44652e-05	0.000000000000000E+000	6.44652e-05	0.0000000E+000	0.000000000000000E+000	8.22556e-07
2	0	0	0	0	0	0	56.2	-0.299985	-0.300444	-0.00272951	-0.000236723	-0.000236723	41	-6.57563e-05	0	0.000000000000000E+000	1.97541e-08	0.000000000000000E+000	3.64028e+06	56.2	6.57563e-05	0.000000000000000E+000	6.57563e-05	0.0000000E+000	0.000000000000000E+000	8.20065e-07
2	0	0	0	0	0	0	57.9	-0.299985	-0.300406	-0.00272169	-0.000241346	-0.000241346	41	-6.70407e-05	0	0.000000000000000E+000	2.01399e-08	0.000000000000000E+000	9.02814e+06	57.9	6.70407e-05	0.000000000000000E+000	6.70407e-05	0.0000000E+000	0.000000000000000E+000	8.17612e-07
2	0	0	0	0	0	0	59.6	-0.299985	-0.300398	-0.00269906	-0.000245948	-0.000245948	41	-6.83189e-05	0	0.000000000000000E+000	2.05239e-08	0.000000000000000E+000	1.28147e+07	59.6	6.83189e-05	0.000000000000000E+000	6.83189e-05	0.0000000E+000	0.000000000000000E+000	8.10792e-07
2	0	0	0	0	0	0	61.3	-0.299985	-0.300364	-0.00267755	-0.000250523	-0.000250523	41	-6.95898e-05	0	0.000000000000000E+000	2.09057e-08	0.000000000000000E+000	1.64504e+07	61.3	6.95898e-05	0.000000000000000E+000	6.95898e-05	0.0000000E+000	0.000000000000000E+000	8.04239e-07
2	0	0	0	0	0	0	62.234	-0.299985	-0.300383	-0.0026681	-0.00025302	-0.00025302	41	-7.02834e-05	0	0.000000000000000E+000	2.1114e-08	0.000000000000000E+000	6.63277e+07	62.234	7.02834e-05	0.000000000000000E+000	7.02834e-05	0.0000000E+000	0.000000000000000E+000	8.01452e-07