File: Fig 3/Fig 3_RRDE-np-Fe2O3_500mvs_disk.mpt
mode	ox/red	error	control changes	Ns changes	counter inc.	Ns	time/s	control/V	Ewe/V	<I>/mA	dQ/C	(Q-Qo)/C	I Range	Q charge/discharge/mA.h	half cycle	Energy charge/W.h	Energy discharge/W.h	Capacitance charge/µF	Capacitance discharge/µF	step time/s	Q discharge/mA.h	Q charge/mA.h	Capacity/mA.h	Efficiency/%	cycle number	P/W
2	1	1	0	0	0	0	0.2468	-0.299969	-0.458048	-0.249953	-6.16883e-05	-6.16883e-05	41	-1.71356e-05	0	0.000000000000000E+000	7.84894e-09	0.000000000000000E+000	0.000000000000000E+000	0.2468	1.71356e-05	0.000000000000000E+000	1.71356e-05	0.0000000E+000	0.000000000000000E+000	0.00011449
2	1	0	0	0	0	0	0.7698	-0.299969	-0.300322	0.0214259	-2.07458e-05	-2.07458e-05	41	1.13729e-05	2	3.40805e-09	0.000000000000000E+000	10151.2	0.000000000000000E+000	0.4	0.000000000000000E+000	1.13729e-05	1.13729e-05	0.0000000E+000	1	-6.43467e-06
2	0	0	0	0	0	0	1.2698	-0.299969	-0.300365	-0.00035434	-1.83406e-05	-1.83406e-05	41	-9.84277e-09	3	3.61167e-09	2.95641e-12	10715.7	0.000000000000000E+000	0.000000000000000E+000	9.84277e-09	0.000000000000000E+000	9.84277e-09	0.0000000E+000	1	1.06431e-07
2	1	0	0	0	0	0	1.7698	-0.299969	-0.30038	-0.000450802	-1.93998e-05	-1.93998e-05	41	-3.04062e-07	3	3.61167e-09	9.13187e-11	10715.7	71597.4	0.5	3.04062e-07	0.000000000000000E+000	3.04062e-07	2.52316	1	1.35412e-07
2	1	0	0	0	0	0	2.2698	-0.299969	-0.300334	0.0249286	-5.10944e-06	-5.10944e-06	41	3.96955e-06	4	1.19221e-09	0.000000000000000E+000	311570	0.000000000000000E+000	0.4	0.000000000000000E+000	3.96955e-06	3.96955e-06	0.0000000E+000	2	-7.48689e-06
2	0	0	0	0	0	0	2.7698	-0.299969	-0.300292	-0.00300658	-3.73137e-06	-3.73137e-06	41	-1.20612e-07	5	1.3434e-09	3.62208e-11	351311	8112.16	0.1	1.20612e-07	0.000000000000000E+000	1.20612e-07	0.0000000E+000	2	9.02851e-07
2	1	0	0	0	0	0	3.2698	-0.299969	-0.300384	0.00456044	-4.21432e-06	-4.21432e-06	41	1.49883e-07	6	4.50222e-11	0.000000000000000E+000	141447	0.000000000000000E+000	0.1	0.000000000000000E+000	1.49883e-07	1.49883e-07	0.0000000E+000	3	-1.36988e-06
2	0	0	0	0	0	0	3.7698	-0.299969	-0.30033	-0.00299603	-3.1776e-06	-3.1776e-06	41	-1.14663e-07	7	1.65954e-10	3.44359e-11	26020.4	17941.4	0.1	1.14663e-07	0.000000000000000E+000	1.14663e-07	0.0000000E+000	3	8.99799e-07
2	0	0	0	0	0	0	4.2698	-0.299969	-0.300334	-0.00411534	-5.14323e-06	-5.14323e-06	41	-6.60671e-07	7	1.65954e-10	1.98416e-10	26020.4	88673.7	0.6	6.60671e-07	0.000000000000000E+000	6.60671e-07	0.0000000E+000	3	1.23598e-06
2	0	0	0	0	0	0	4.7698	-0.299969	-0.300353	-0.00437916	-7.29289e-06	-7.29289e-06	41	-1.2578e-06	7	1.65954e-10	3.77755e-10	26020.4	98596.2	1.1	1.2578e-06	0.000000000000000E+000	1.2578e-06	0.0000000E+000	3	1.31529e-06
2	0	0	0	0	0	0	5.2698	-0.299969	-0.300342	-0.00458862	-9.56327e-06	-9.56327e-06	41	-1.88846e-06	7	1.65954e-10	5.6716e-10	26020.4	196993	1.6	1.88846e-06	0.000000000000000E+000	1.88846e-06	0.0000000E+000	3	1.37815e-06
2	1	0	0	0	0	0	5.7698	-0.299969	-0.300323	0.0019257	-1.08532e-05	-1.08532e-05	41	5.34916e-08	8	1.60648e-11	0.000000000000000E+000	0.000000000000000E+000	0.000000000000000E+000	0.000000000000000E+000	0.000000000000000E+000	5.34916e-08	5.34916e-08	0.0000000E+000	4	-5.78331e-07
2	1	0	0	0	0	0	6.2698	-0.299969	-0.300353	0.00918874	-3.69868e-06	-3.69868e-06	41	2.04086e-06	8	6.12904e-10	0.000000000000000E+000	240515	0.000000000000000E+000	0.5	0.000000000000000E+000	2.04086e-06	2.04086e-06	0.0000000E+000	4	-2.75987e-06
2	0	0	0	0	0	0	6.7698	-0.299969	-0.3003	-0.00319607	-4.87916e-06	-4.87916e-06	41	-3.81427e-07	9	6.28976e-10	1.14554e-10	2.00788e+06	39891.7	0.3	3.81427e-07	0.000000000000000E+000	3.81427e-07	0.0000000E+000	4	9.59779e-07
2	0	0	0	0	0	0	7.2698	-0.299969	-0.300403	-0.00332465	-6.775e-06	-6.775e-06	41	-9.08051e-07	9	6.28976e-10	2.72719e-10	2.00788e+06	47484.4	0.8	9.08051e-07	0.000000000000000E+000	9.08051e-07	0.0000000E+000	4	9.98735e-07
2	1	0	0	0	0	0	7.7698	-0.299969	-0.3003	0.00334227	-5.29576e-06	-5.29576e-06	41	4.37606e-07	10	1.31423e-10	0.000000000000000E+000	27446	0.000000000000000E+000	0.3	0.000000000000000E+000	4.37606e-07	4.37606e-07	0.0000000E+000	5	-1.00368e-06
2	0	0	0	0	0	0	8.2698	-0.299969	-0.300342	-0.002673	-5.94603e-06	-5.94603e-06	41	-2.09998e-07	11	1.40242e-10	6.30716e-11	20923.1	49641.7	0.3	2.09998e-07	0.000000000000000E+000	2.09998e-07	0.0000000E+000	5	8.02814e-07
2	0	0	0	0	0	0	8.7698	-0.299969	-0.300349	-0.00306251	-7.41028e-06	-7.41028e-06	41	-6.16734e-07	11	1.40242e-10	1.85226e-10	20923.1	96877.8	0.8	6.16734e-07	0.000000000000000E+000	6.16734e-07	0.0000000E+000	5	9.19822e-07
2	0	0	0	0	0	0	9.2698	-0.299969	-0.300292	-0.00345334	-9.05378e-06	-9.05378e-06	41	-1.07326e-06	11	1.40242e-10	3.22333e-10	20923.1	111957	1.3	1.07326e-06	0.000000000000000E+000	1.07326e-06	0.0000000E+000	5	1.03701e-06
2	0	0	0	0	0	0	9.7698	-0.299969	-0.30033	-0.00301871	-1.07749e-05	-1.07749e-05	41	-1.55135e-06	11	1.40242e-10	4.6592e-10	20923.1	1.46404e+06	1.8	1.55135e-06	0.000000000000000E+000	1.55135e-06	0.0000000E+000	5	9.06609e-07
2	1	0	0	0	0	0	10.2698	-0.299969	-0.300273	0.015469	-7.569e-06	-7.569e-06	41	9.39461e-07	12	2.82131e-10	0.000000000000000E+000	63292.3	0.000000000000000E+000	0.3	0.000000000000000E+000	9.39461e-07	9.39461e-07	0.0000000E+000	6	-4.64492e-06
2	0	0	0	0	0	0	10.7698	-0.299969	-0.3003	-0.00297699	-5.55488e-06	-5.55488e-06	41	-1.48491e-07	13	4.94738e-10	4.45925e-11	222102	46469.2	0.1	1.48491e-07	0.000000000000000E+000	1.48491e-07	0.0000000E+000	6	8.93989e-07
2	0	0	0	0	0	0	11.2698	-0.299969	-0.300322	-0.00406458	-7.34068e-06	-7.34068e-06	41	-6.44547e-07	13	4.94738e-10	1.93581e-10	222102	202757	0.6	6.44547e-07	0.000000000000000E+000	6.44547e-07	0.0000000E+000	6	1.22068e-06
2	1	0	0	0	0	0	11.7698	-0.299969	-0.300303	0.0027059	-7.93406e-06	-7.93406e-06	41	8.99908e-08	14	2.7025e-11	0.000000000000000E+000	10574.4	0.000000000000000E+000	0.1	0.000000000000000E+000	8.99908e-08	8.99908e-08	0.0000000E+000	7	-8.12592e-07
2	0	0	0	0	0	0	12.2698	-0.299969	-0.300342	-0.00140286	-7.43061e-06	-7.43061e-06	41	-5.18135e-08	15	8.45813e-11	1.5561e-11	29431.1	3247.98	0.1	5.18135e-08	0.000000000000000E+000	5.18135e-08	0.0000000E+000	7	4.21337e-07
2	0	0	0	0	0	0	12.7698	-0.299969	-0.300315	-0.00246466	-8.59025e-06	-8.59025e-06	41	-3.73936e-07	15	8.45813e-11	1.12304e-10	29431.1	43982.4	0.6	3.73936e-07	0.000000000000000E+000	3.73936e-07	0.0000000E+000	7	7.40173e-07
2	0	0	0	0	0	0	13.2698	-0.299969	-0.300292	-0.00279594	-9.91732e-06	-9.91732e-06	41	-7.42569e-07	15	8.45813e-11	2.23009e-10	29431.1	350388	1.1	7.42569e-07	0.000000000000000E+000	7.42569e-07	0.0000000E+000	7	8.39597e-07
2	0	0	0	0	0	0	13.7698	-0.299969	-0.300391	-0.00324131	-1.14458e-05	-1.14458e-05	41	-1.16714e-06	15	8.45813e-11	3.50524e-10	29431.1	39239.1	1.6	1.16714e-06	0.000000000000000E+000	1.16714e-06	0.0000000E+000	7	9.73663e-07
2	0	0	0	0	0	0	14.2698	-0.299969	-0.30033	-0.00349629	-1.31496e-05	-1.31496e-05	41	-1.64042e-06	15	8.45813e-11	4.92667e-10	29431.1	128840	2.1	1.64042e-06	0.000000000000000E+000	1.64042e-06	0.0000000E+000	7	1.05004e-06
2	0	0	0	0	0	0	14.7698	-0.299969	-0.300357	-0.00359987	-1.49332e-05	-1.49332e-05	41	-2.13586e-06	15	8.45813e-11	6.41458e-10	29431.1	105826	2.6	2.13586e-06	0.000000000000000E+000	2.13586e-06	0.0000000E+000	7	1.08125e-06
2	0	0	0	0	0	0	15.2698	-0.299969	-0.300342	-0.0036462	-1.67415e-05	-1.67415e-05	41	-2.63816e-06	15	8.45813e-11	7.92325e-10	29431.1	165634	3.1	2.63816e-06	0.000000000000000E+000	2.63816e-06	0.0000000E+000	7	1.09511e-06
2	0	0	0	0	0	0	15.7698	-0.299969	-0.300307	-0.00363711	-1.85615e-05	-1.85615e-05	41	-3.14372e-06	15	8.45813e-11	9.44153e-10	29431.1	493822	3.6	3.14372e-06	0.000000000000000E+000	3.14372e-06	0.0000000E+000	7	1.09225e-06
2	0	0	0	0	0	0	16.2698	-0.299969	-0.300322	-0.00364362	-2.03722e-05	-2.03722e-05	41	-3.6467e-06	15	8.45813e-11	1.0952e-09	29431.1	343341	4.1	3.6467e-06	0.000000000000000E+000	3.6467e-06	0.0000000E+000	7	1.09426e-06
2	0	0	0	0	0	0	16.7698	-0.299969	-0.300342	-0.0035844	-2.2173e-05	-2.2173e-05	41	-4.14693e-06	15	8.45813e-11	1.24544e-09	29431.1	259955	4.6	4.14693e-06	0.000000000000000E+000	4.14693e-06	0.0000000E+000	7	1.07654e-06
2	0	0	0	0	0	0	17.2698	-0.299969	-0.300303	-0.00355963	-2.39581e-05	-2.39581e-05	41	-4.64277e-06	15	8.45813e-11	1.39434e-09	29431.1	874927	5.1	4.64277e-06	0.000000000000000E+000	4.64277e-06	0.0000000E+000	7	1.06897e-06
2	0	0	0	0	0	0	17.7698	-0.299969	-0.300307	-0.00355607	-2.57366e-05	-2.57366e-05	41	-5.13681e-06	15	8.45813e-11	1.54271e-09	29431.1	803765	5.6	5.13681e-06	0.000000000000000E+000	5.13681e-06	0.0000000E+000	7	1.06791e-06
2	0	0	0	0	0	0	18.2698	-0.299969	-0.300349	-0.00356764	-2.75177e-05	-2.75177e-05	41	-5.63157e-06	15	8.45813e-11	1.6913e-09	29431.1	311765	6.1	5.63157e-06	0.000000000000000E+000	5.63157e-06	0.0000000E+000	7	1.07154e-06
2	0	0	0	0	0	0	18.7698	-0.299969	-0.3003	-0.0035494	-2.92986e-05	-2.92986e-05	41	-6.12626e-06	15	8.45813e-11	1.83986e-09	29431.1	1.43974e+06	6.6	6.12626e-06	0.000000000000000E+000	6.12626e-06	0.0000000E+000	7	1.06588e-06
2	0	0	0	0	0	0	19.2698	-0.299969	-0.300254	-0.00352296	-3.10672e-05	-3.10672e-05	41	-6.61754e-06	15	8.45813e-11	1.98737e-09	29431.1	779875	7.1	6.61754e-06	0.000000000000000E+000	6.61754e-06	0.0000000E+000	7	1.05778e-06
2	0	0	0	0	0	0	19.7698	-0.299969	-0.300307	-0.00353634	-3.28407e-05	-3.28407e-05	41	-7.11017e-06	15	8.45813e-11	2.13533e-09	29431.1	1.11398e+06	7.6	7.11017e-06	0.000000000000000E+000	7.11017e-06	0.0000000E+000	7	1.06199e-06
2	0	0	0	0	0	0	20.2698	-0.299969	-0.300292	-0.00353565	-3.46038e-05	-3.46038e-05	41	-7.59993e-06	15	8.45813e-11	2.28241e-09	29431.1	3.5583e+06	8.1	7.59993e-06	0.000000000000000E+000	7.59993e-06	0.0000000E+000	7	1.06173e-06
2	0	0	0	0	0	0	20.7698	-0.299969	-0.300288	-0.00353942	-3.63689e-05	-3.63689e-05	41	-8.09023e-06	15	8.45813e-11	2.42965e-09	29431.1	7.6349e+06	8.6	8.09023e-06	0.000000000000000E+000	8.09023e-06	0.0000000E+000	7	1.06285e-06
2	0	0	0	0	0	0	20.9544	-0.299969	-0.300338	-0.00353169	-3.70211e-05	-3.70211e-05	41	-8.27139e-06	15	8.45813e-11	2.48406e-09	29431.1	556320	8.7846	8.27139e-06	0.000000000000000E+000	8.27139e-06	2936.74	7	1.0607e-06