File: Fig 3/Fig 3_RRDE-np-Fe2O3_10mvs_disk.mpt
mode	ox/red	error	control changes	Ns changes	counter inc.	Ns	time/s	control/V	Ewe/V	<I>/mA	dQ/C	(Q-Qo)/C	I Range	Q charge/discharge/mA.h	half cycle	Energy charge/W.h	Energy discharge/W.h	Capacitance charge/µF	Capacitance discharge/µF	step time/s	Q discharge/mA.h	Q charge/mA.h	Capacity/mA.h	Efficiency/%	cycle number	P/W
2	0	1	0	0	0	0	0.247	-0.300004	-0.455289	-0.250074	-6.17683e-05	-6.17683e-05	41	-1.71579e-05	0	0.000000000000000E+000	7.81179e-09	0.000000000000000E+000	0.000000000000000E+000	0.247	1.71579e-05	0.000000000000000E+000	1.71579e-05	0.0000000E+000	0.000000000000000E+000	0.000113856
2	0	0	0	0	0	0	5.4854	-0.300004	-0.300183	-0.00139866	-3.58468e-05	-3.58468e-05	41	-6.96879e-07	3	3.43243e-09	2.09175e-10	978992	218650	2.6	6.96879e-07	0.000000000000000E+000	6.96879e-07	0.0000000E+000	1	4.19853e-07
2	0	0	0	0	0	0	10.6854	-0.300004	-0.300164	-0.00187026	-4.4691e-05	-4.4691e-05	41	-3.1536e-06	3	3.43243e-09	9.46568e-10	978992	371289	7.8	3.1536e-06	0.000000000000000E+000	3.1536e-06	0.0000000E+000	1	5.61384e-07
2	0	0	0	0	0	0	15.8854	-0.300004	-0.300144	-0.00198358	-5.47196e-05	-5.47196e-05	41	-5.93933e-06	3	3.43243e-09	1.7827e-09	978992	430382	13	5.93933e-06	0.000000000000000E+000	5.93933e-06	0.0000000E+000	1	5.9536e-07
2	0	0	0	0	0	0	21.0854	-0.300004	-0.300175	-0.00206306	-6.51768e-05	-6.51768e-05	41	-8.8441e-06	3	3.43243e-09	2.65454e-09	978992	1.66666e+06	18.2	8.8441e-06	0.000000000000000E+000	8.8441e-06	0.0000000E+000	1	6.1928e-07
2	0	0	0	0	0	0	26.2854	-0.300004	-0.300148	-0.00206217	-7.58454e-05	-7.58454e-05	41	-1.18076e-05	3	3.43243e-09	3.54405e-09	978992	926778	23.4	1.18076e-05	0.000000000000000E+000	1.18076e-05	0.0000000E+000	1	6.18956e-07
2	0	0	0	0	0	0	31.4854	-0.300004	-0.300156	-0.00208553	-8.66059e-05	-8.66059e-05	41	-1.47966e-05	3	3.43243e-09	4.44124e-09	978992	1.39312e+06	28.6	1.47966e-05	0.000000000000000E+000	1.47966e-05	0.0000000E+000	1	6.25983e-07
2	0	0	0	0	0	0	36.6854	-0.300004	-0.300141	-0.00205446	-9.74062e-05	-9.74062e-05	41	-1.77967e-05	3	3.43243e-09	5.34175e-09	978992	1.19764e+06	33.8	1.77967e-05	0.000000000000000E+000	1.77967e-05	0.0000000E+000	1	6.16626e-07
2	0	0	0	0	0	0	41.8854	-0.300004	-0.300121	-0.00208608	-0.000108242	-0.000108242	41	-2.08067e-05	3	3.43243e-09	6.2452e-09	978992	1.03133e+06	39	2.08067e-05	0.000000000000000E+000	2.08067e-05	0.0000000E+000	1	6.26077e-07
2	0	0	0	0	0	0	47.0854	-0.300004	-0.300186	-0.0020913	-0.00011906	-0.00011906	41	-2.38116e-05	3	3.43243e-09	7.14711e-09	978992	1.1192e+07	44.2	2.38116e-05	0.000000000000000E+000	2.38116e-05	0.0000000E+000	1	6.27779e-07
2	0	0	0	0	0	0	52.2854	-0.300004	-0.300091	-0.00207885	-0.000129809	-0.000129809	41	-2.67974e-05	3	3.43243e-09	8.04323e-09	978992	934745	49.4	2.67974e-05	0.000000000000000E+000	2.67974e-05	0.0000000E+000	1	6.23843e-07
2	0	0	0	0	0	0	57.4854	-0.300004	-0.300125	-0.00195606	-0.000140273	-0.000140273	41	-2.97043e-05	3	3.43243e-09	8.91564e-09	978992	1.55399e+06	54.6	2.97043e-05	0.000000000000000E+000	2.97043e-05	0.0000000E+000	1	5.87063e-07
2	0	0	0	0	0	0	62.6854	-0.300004	-0.300083	-0.00124994	-0.000149224	-0.000149224	41	-3.21905e-05	3	3.43243e-09	9.66181e-09	978992	1.04529e+06	59.8	3.21905e-05	0.000000000000000E+000	3.21905e-05	0.0000000E+000	1	3.75087e-07
2	1	0	0	0	0	0	67.8854	-0.300004	-0.300133	0.00584441	-0.000141511	-0.000141511	41	2.48924e-06	4	7.47047e-10	0.000000000000000E+000	213105	0.000000000000000E+000	3.4	0.000000000000000E+000	2.48924e-06	2.48924e-06	0.0000000E+000	2	-1.7541e-06
2	1	0	0	0	0	0	73.0854	-0.300004	-0.300087	0.0109643	-9.19375e-05	-9.19375e-05	41	1.62597e-05	4	4.87967e-09	0.000000000000000E+000	1.52257e+07	0.000000000000000E+000	8.6	0.000000000000000E+000	1.62597e-05	1.62597e-05	0.0000000E+000	2	-3.29024e-06
2	1	0	0	0	0	0	78.2854	-0.300004	-0.300148	0.0113909	-3.33541e-05	-3.33541e-05	41	3.25329e-05	4	9.76317e-09	0.000000000000000E+000	2.04254e+06	0.000000000000000E+000	13.8	0.000000000000000E+000	3.25329e-05	3.25329e-05	0.0000000E+000	2	-3.41896e-06
2	1	0	0	0	0	0	83.4854	-0.300004	-0.300091	0.0122564	2.7903e-05	2.7903e-05	41	4.95488e-05	4	1.48699e-08	0.000000000000000E+000	0.000000000000000E+000	0.000000000000000E+000	19	0.000000000000000E+000	4.95488e-05	4.95488e-05	0.0000000E+000	2	-3.67804e-06
2	0	0	0	0	0	0	88.6854	-0.300004	-0.300129	-5.56457e-05	6.55295e-05	6.55295e-05	41	-1.54571e-09	5	1.8007e-08	4.64042e-13	2.82574e+06	0.000000000000000E+000	0.000000000000000E+000	1.54571e-09	0.000000000000000E+000	1.54571e-09	0.0000000E+000	2	1.67009e-08
2	0	0	0	0	0	0	93.8854	-0.300004	-0.300133	-0.00155125	5.95968e-05	5.95968e-05	41	-1.64954e-06	5	1.8007e-08	4.95049e-10	2.82574e+06	1.5567e+06	5.2	1.64954e-06	0.000000000000000E+000	1.64954e-06	0.0000000E+000	2	4.65581e-07
2	0	0	0	0	0	0	99.0854	-0.300004	-0.300129	-0.00149886	5.14721e-05	5.14721e-05	41	-3.90638e-06	5	1.8007e-08	1.17238e-09	2.82574e+06	0.000000000000000E+000	10.4	3.90638e-06	0.000000000000000E+000	3.90638e-06	0.0000000E+000	2	4.49852e-07
2	0	0	0	0	0	0	104.285	-0.300004	-0.30006	-0.00168001	4.3919e-05	4.3919e-05	41	-6.00447e-06	5	1.8007e-08	1.80205e-09	2.82574e+06	313990	15.6	6.00447e-06	0.000000000000000E+000	6.00447e-06	0.0000000E+000	2	5.04103e-07
2	0	0	0	0	0	0	109.485	-0.300004	-0.300106	-0.00187533	3.44512e-05	3.44512e-05	41	-8.63442e-06	5	1.8007e-08	2.59133e-09	2.82574e+06	1.35455e+06	20.8	8.63442e-06	0.000000000000000E+000	8.63442e-06	0.0000000E+000	2	5.62798e-07
2	0	0	0	0	0	0	114.685	-0.300004	-0.300099	-0.00202106	2.43318e-05	2.43318e-05	41	-1.14454e-05	5	1.8007e-08	3.43495e-09	2.82574e+06	1.34621e+06	26	1.14454e-05	0.000000000000000E+000	1.14454e-05	0.0000000E+000	2	6.06517e-07
2	0	0	0	0	0	0	119.885	-0.300004	-0.300121	-0.00200775	1.40065e-05	1.40065e-05	41	-1.43135e-05	5	1.8007e-08	4.29575e-09	2.82574e+06	6.72768e+06	31.2	1.43135e-05	0.000000000000000E+000	1.43135e-05	0.0000000E+000	2	6.02569e-07
2	0	0	0	0	0	0	125.085	-0.300004	-0.300095	-0.00197149	3.66076e-06	3.66076e-06	41	-1.71873e-05	5	1.8007e-08	5.15822e-09	2.82574e+06	1.79754e+06	36.4	1.71873e-05	0.000000000000000E+000	1.71873e-05	0.0000000E+000	2	5.91632e-07
2	0	0	0	0	0	0	130.285	-0.300004	-0.300133	-0.00197606	-6.57104e-06	-6.57104e-06	41	-2.00295e-05	5	1.8007e-08	6.01117e-09	2.82574e+06	1.89022e+07	41.6	2.00295e-05	0.000000000000000E+000	2.00295e-05	0.0000000E+000	2	5.93081e-07
2	0	0	0	0	0	0	135.485	-0.300004	-0.300141	-0.00190694	-1.69105e-05	-1.69105e-05	41	-2.29015e-05	5	1.8007e-08	6.87312e-09	2.82574e+06	7.2042e+06	46.8	2.29015e-05	0.000000000000000E+000	2.29015e-05	0.0000000E+000	2	5.72351e-07
2	1	0	0	0	0	0	140.685	-0.300004	-0.300121	0.00064331	-2.10922e-05	-2.10922e-05	41	9.92887e-08	6	2.98008e-11	0.000000000000000E+000	93700.6	0.000000000000000E+000	1	0.000000000000000E+000	9.92887e-08	9.92887e-08	0.0000000E+000	3	-1.93071e-07
2	1	0	0	0	0	0	145.885	-0.300004	-0.300118	0.00469963	-8.40928e-06	-8.40928e-06	41	3.62232e-06	6	1.08715e-09	0.000000000000000E+000	0.000000000000000E+000	0.000000000000000E+000	6.2	0.000000000000000E+000	3.62232e-06	3.62232e-06	0.0000000E+000	3	-1.41044e-06
2	1	0	0	0	0	0	151.085	-0.300004	-0.300133	0.00952239	3.15176e-05	3.15176e-05	41	1.47131e-05	6	4.41574e-09	0.000000000000000E+000	3.4645e+06	0.000000000000000E+000	11.4	0.000000000000000E+000	1.47131e-05	1.47131e-05	0.0000000E+000	3	-2.85798e-06
2	1	0	0	0	0	0	156.285	-0.300004	-0.300095	0.00775325	7.92057e-05	7.92057e-05	41	2.79598e-05	6	8.3914e-09	0.000000000000000E+000	4.38628e+06	0.000000000000000E+000	16.6	0.000000000000000E+000	2.79598e-05	2.79598e-05	0.0000000E+000	3	-2.32671e-06
2	1	0	0	0	0	0	161.485	-0.300004	-0.300148	-0.00011038	9.54191e-05	9.54191e-05	41	-4.38632e-09	7	9.74437e-09	1.31633e-12	1.9113e+06	344.282	0.1	4.38632e-09	0.000000000000000E+000	4.38632e-09	0.0000000E+000	3	3.31305e-08
2	0	0	0	0	0	0	166.685	-0.300004	-0.300144	-0.00179802	8.88048e-05	8.88048e-05	41	-1.84168e-06	7	9.74437e-09	5.52735e-10	1.9113e+06	157667	5.3	1.84168e-06	0.000000000000000E+000	1.84168e-06	0.0000000E+000	3	5.39667e-07
2	0	0	0	0	0	0	171.885	-0.300004	-0.300125	-0.00200094	7.87796e-05	7.87796e-05	41	-4.62648e-06	7	9.74437e-09	1.38849e-09	1.9113e+06	725792	10.5	4.62648e-06	0.000000000000000E+000	4.62648e-06	0.0000000E+000	3	6.00533e-07
2	0	0	0	0	0	0	177.085	-0.300004	-0.300133	-0.00205784	6.81693e-05	6.81693e-05	41	-7.57377e-06	7	9.74437e-09	2.27305e-09	1.9113e+06	891696	15.7	7.57377e-06	0.000000000000000E+000	7.57377e-06	0.0000000E+000	3	6.17625e-07
2	0	0	0	0	0	0	182.285	-0.300004	-0.300129	-0.00212298	5.72631e-05	5.72631e-05	41	-1.06033e-05	7	9.74437e-09	3.18231e-09	1.9113e+06	1.42632e+06	20.9	1.06033e-05	0.000000000000000E+000	1.06033e-05	0.0000000E+000	3	6.37168e-07
2	0	0	0	0	0	0	187.485	-0.300004	-0.300133	-0.00215531	4.61421e-05	4.61421e-05	41	-1.36924e-05	7	9.74437e-09	4.10949e-09	1.9113e+06	1.61208e+06	26.1	1.36924e-05	0.000000000000000E+000	1.36924e-05	0.0000000E+000	3	6.4688e-07
2	0	0	0	0	0	0	192.685	-0.300004	-0.300095	-0.0021759	3.4885e-05	3.4885e-05	41	-1.68194e-05	7	9.74437e-09	5.04796e-09	1.9113e+06	7.90552e+06	31.3	1.68194e-05	0.000000000000000E+000	1.68194e-05	0.0000000E+000	3	6.52977e-07
2	0	0	0	0	0	0	197.885	-0.300004	-0.300106	-0.00220402	2.35106e-05	2.35106e-05	41	-1.9979e-05	7	9.74437e-09	5.9962e-09	1.9113e+06	1.88545e+07	36.5	1.9979e-05	0.000000000000000E+000	1.9979e-05	0.0000000E+000	3	6.61441e-07
2	0	0	0	0	0	0	203.085	-0.300004	-0.300167	-0.00220912	1.20551e-05	1.20551e-05	41	-2.3161e-05	7	9.74437e-09	6.95122e-09	1.9113e+06	1.28338e+06	41.7	2.3161e-05	0.000000000000000E+000	2.3161e-05	0.0000000E+000	3	6.63106e-07
2	0	0	0	0	0	0	208.285	-0.300004	-0.300129	-0.00221713	5.1313e-07	5.1313e-07	41	-2.63672e-05	7	9.74437e-09	7.91346e-09	1.9113e+06	3.54682e+06	46.9	2.63672e-05	0.000000000000000E+000	2.63672e-05	0.0000000E+000	3	6.65426e-07
2	0	0	0	0	0	0	213.485	-0.300004	-0.30016	-0.00220895	-1.10381e-05	-1.10381e-05	41	-2.95758e-05	7	9.74437e-09	8.87645e-09	1.9113e+06	1.85688e+06	52.1	2.95758e-05	0.000000000000000E+000	2.95758e-05	0.0000000E+000	3	6.63036e-07
2	0	0	0	0	0	0	218.685	-0.300004	-0.300152	-0.0021927	-2.25478e-05	-2.25478e-05	41	-3.2773e-05	7	9.74437e-09	9.83598e-09	1.9113e+06	2.37483e+06	57.3	3.2773e-05	0.000000000000000E+000	3.2773e-05	0.0000000E+000	3	6.58142e-07
2	0	0	0	0	0	0	223.885	-0.300004	-0.300129	-0.00221225	-3.40294e-05	-3.40294e-05	41	-3.59623e-05	7	9.74437e-09	1.07932e-08	1.9113e+06	4.83753e+06	62.5	3.59623e-05	0.000000000000000E+000	3.59623e-05	0.0000000E+000	3	6.63962e-07
2	0	0	0	0	0	0	229.085	-0.300004	-0.300091	-0.0021896	-4.54747e-05	-4.54747e-05	41	-3.91416e-05	7	9.74437e-09	1.17473e-08	1.9113e+06	1.22809e+07	67.7	3.91416e-05	0.000000000000000E+000	3.91416e-05	0.0000000E+000	3	6.57079e-07
2	0	0	0	0	0	0	229.617	-0.300004	-0.300095	-0.00218898	-4.66442e-05	-4.66442e-05	41	-3.94664e-05	7	9.74437e-09	1.18448e-08	1.9113e+06	1.85501e+07	68.2312	3.94664e-05	0.000000000000000E+000	3.94664e-05	121.555	3	6.56902e-07