File: Fig 3/Fig 3_RRDE-np-Fe2O3_100mvs_disk.mpt
mode	ox/red	error	control changes	Ns changes	counter inc.	Ns	time/s	control/V	Ewe/V	<I>/mA	dQ/C	(Q-Qo)/C	I Range	Q charge/discharge/mA.h	half cycle	Energy charge/W.h	Energy discharge/W.h	Capacitance charge/µF	Capacitance discharge/µF	step time/s	Q discharge/mA.h	Q charge/mA.h	Capacity/mA.h	Efficiency/%	cycle number	P/W
2	1	1	0	0	0	0	0.266	-0.300004	-0.450728	-0.250014	-6.65037e-05	-6.65037e-05	41	-1.84732e-05	0	0.000000000000000E+000	8.32641e-09	0.000000000000000E+000	0.000000000000000E+000	0.266	1.84732e-05	0.000000000000000E+000	1.84732e-05	0.0000000E+000	0.000000000000000E+000	0.000112688
2	0	0	0	0	0	0	2.1096	-0.300004	-0.300144	-0.00132464	-2.92712e-05	-2.92712e-05	41	-9.20342e-08	3	3.13174e-09	2.7623e-11	2147.23	0.000000000000000E+000	0.3	9.20342e-08	0.000000000000000E+000	9.20342e-08	0.0000000E+000	1	3.97583e-07
2	0	0	0	0	0	0	3.9096	-0.300004	-0.300217	-0.00317049	-3.40303e-05	-3.40303e-05	41	-1.41401e-06	3	3.13174e-09	4.24453e-10	2147.23	70089	2.1	1.41401e-06	0.000000000000000E+000	1.41401e-06	0.0000000E+000	1	9.51834e-07
2	0	0	0	0	0	0	5.7096	-0.300004	-0.300209	-0.00322738	-3.9838e-05	-3.9838e-05	41	-3.02726e-06	3	3.13174e-09	9.08686e-10	2147.23	167744	3.9	3.02726e-06	0.000000000000000E+000	3.02726e-06	0.0000000E+000	1	9.68891e-07
2	1	0	0	0	0	0	7.5096	-0.300004	-0.300179	0.00260539	-4.39173e-05	-4.39173e-05	41	9.04431e-08	4	2.71497e-11	0.000000000000000E+000	10648.3	0.000000000000000E+000	0.1	0.000000000000000E+000	9.04431e-08	9.04431e-08	0.0000000E+000	2	-7.82084e-07
2	1	0	0	0	0	0	9.3096	-0.300004	-0.300175	0.0364501	1.73737e-05	1.73737e-05	41	1.71157e-05	4	5.13744e-09	0.000000000000000E+000	1.7916e+06	0.000000000000000E+000	1.9	0.000000000000000E+000	1.71157e-05	1.71157e-05	0.0000000E+000	2	-1.09414e-05
2	0	0	0	0	0	0	11.1096	-0.300004	-0.30016	-0.000220488	3.27209e-05	3.27209e-05	41	-6.12467e-09	5	6.4189e-09	1.83846e-12	1.6785e+06	0.000000000000000E+000	0.000000000000000E+000	6.12467e-09	0.000000000000000E+000	6.12467e-09	0.0000000E+000	2	6.61817e-08
2	0	0	0	0	0	0	12.9096	-0.300004	-0.300217	-0.0025644	2.88121e-05	2.88121e-05	41	-1.09191e-06	5	6.4189e-09	3.27738e-10	1.6785e+06	68553.9	1.8	1.09191e-06	0.000000000000000E+000	1.09191e-06	0.0000000E+000	2	7.69878e-07
2	1	0	0	0	0	0	14.7096	-0.300004	-0.300125	0.00668709	2.83147e-05	2.83147e-05	41	6.18336e-07	6	1.85595e-10	0.000000000000000E+000	0.000000000000000E+000	0.000000000000000E+000	0.5	0.000000000000000E+000	6.18336e-07	6.18336e-07	0.0000000E+000	3	-2.00696e-06
2	1	0	0	0	0	0	16.5096	-0.300004	-0.300202	0.00288507	5.18529e-05	5.18529e-05	41	7.15673e-06	6	2.14821e-09	0.000000000000000E+000	337039	0.000000000000000E+000	2.3	0.000000000000000E+000	7.15673e-06	7.15673e-06	0.0000000E+000	3	-8.66102e-07
2	0	0	0	0	0	0	18.3096	-0.300004	-0.300095	-0.00238207	4.89389e-05	4.89389e-05	41	-8.64269e-07	7	2.16466e-09	2.59414e-10	424319	45214.5	1.5	8.64269e-07	0.000000000000000E+000	8.64269e-07	0.0000000E+000	3	7.14847e-07
2	0	0	0	0	0	0	20.1096	-0.300004	-0.300125	-0.00248689	4.45251e-05	4.45251e-05	41	-2.09032e-06	7	2.16466e-09	6.27429e-10	424319	196806	3.3	2.09032e-06	0.000000000000000E+000	2.09032e-06	0.0000000E+000	3	7.4638e-07
2	0	0	0	0	0	0	21.9096	-0.300004	-0.300141	-0.00250711	4.00387e-05	4.00387e-05	41	-3.33654e-06	7	2.16466e-09	1.00148e-09	424319	524109	5.1	3.33654e-06	0.000000000000000E+000	3.33654e-06	0.0000000E+000	3	7.52486e-07
2	0	0	0	0	0	0	23.7096	-0.300004	-0.300137	-0.0024564	3.55735e-05	3.55735e-05	41	-4.57689e-06	7	2.16466e-09	1.37378e-09	424319	615668	6.9	4.57689e-06	0.000000000000000E+000	4.57689e-06	0.0000000E+000	3	7.37257e-07
2	0	0	0	0	0	0	25.5096	-0.300004	-0.300179	-0.00243262	3.11631e-05	3.11631e-05	41	-5.802e-06	7	2.16466e-09	1.74151e-09	424319	1.3662e+06	8.7	5.802e-06	0.000000000000000E+000	5.802e-06	0.0000000E+000	3	7.30222e-07
2	0	0	0	0	0	0	27.3096	-0.300004	-0.300179	-0.000740636	2.74143e-05	2.74143e-05	41	-6.84333e-06	7	2.16466e-09	2.05406e-09	424319	1.6114e+06	10.5	6.84333e-06	0.000000000000000E+000	6.84333e-06	0.0000000E+000	3	2.22323e-07
2	1	0	0	0	0	0	29.1096	-0.300004	-0.300164	0.00534277	4.60226e-05	4.60226e-05	41	5.17422e-06	8	1.55308e-09	0.000000000000000E+000	609186	0.000000000000000E+000	1.6	0.000000000000000E+000	5.17422e-06	5.17422e-06	0.0000000E+000	4	-1.6037e-06
2	0	0	0	0	0	0	30.9096	-0.300004	-0.300091	-0.00196048	4.34683e-05	4.34683e-05	41	-7.8891e-07	9	1.57691e-09	2.36775e-10	224881	67538.7	1.5	7.8891e-07	0.000000000000000E+000	7.8891e-07	0.0000000E+000	4	5.88324e-07
2	0	0	0	0	0	0	32.7096	-0.300004	-0.300152	-0.00228268	3.97029e-05	3.97029e-05	41	-1.83485e-06	9	1.57691e-09	5.50709e-10	224881	345776	3.3	1.83485e-06	0.000000000000000E+000	1.83485e-06	0.0000000E+000	4	6.85152e-07
2	0	0	0	0	0	0	34.5096	-0.300004	-0.300125	-0.00227611	3.55769e-05	3.55769e-05	41	-2.98096e-06	9	1.57691e-09	8.94709e-10	224881	1.40112e+06	5.1	2.98096e-06	0.000000000000000E+000	2.98096e-06	0.0000000E+000	4	6.83117e-07
2	1	0	0	0	0	0	36.3096	-0.300004	-0.300156	0.00859214	3.86335e-05	3.86335e-05	41	1.1945e-06	10	3.58515e-10	0.000000000000000E+000	160859	0.000000000000000E+000	1	0.000000000000000E+000	1.1945e-06	1.1945e-06	0.0000000E+000	5	-2.57898e-06
2	0	0	0	0	0	0	38.1096	-0.300004	-0.300141	-0.0014705	4.85998e-05	4.85998e-05	41	-1.13874e-07	11	1.22362e-09	3.41789e-11	0.000000000000000E+000	26761.7	0.3	1.13874e-07	0.000000000000000E+000	1.13874e-07	0.0000000E+000	5	4.41357e-07
2	0	0	0	0	0	0	39.9096	-0.300004	-0.300198	-0.00220776	4.49237e-05	4.49237e-05	41	-1.135e-06	11	1.22362e-09	3.40672e-10	0.000000000000000E+000	97236.5	2.1	1.135e-06	0.000000000000000E+000	1.135e-06	0.0000000E+000	5	6.62764e-07
2	0	0	0	0	0	0	41.7096	-0.300004	-0.300144	-0.0022841	4.08916e-05	4.08916e-05	41	-2.25503e-06	11	1.22362e-09	6.76855e-10	0.000000000000000E+000	707528	3.9	2.25503e-06	0.000000000000000E+000	2.25503e-06	0.0000000E+000	5	6.8556e-07
2	0	0	0	0	0	0	43.5096	-0.300004	-0.300167	-0.0022948	3.67903e-05	3.67903e-05	41	-3.39427e-06	11	1.22362e-09	1.01879e-09	0.000000000000000E+000	1.06775e+06	5.7	3.39427e-06	0.000000000000000E+000	3.39427e-06	0.0000000E+000	5	6.88825e-07
2	0	0	0	0	0	0	45.3096	-0.300004	-0.300099	-0.00226063	3.27088e-05	3.27088e-05	41	-4.52804e-06	11	1.22362e-09	1.3591e-09	0.000000000000000E+000	284140	7.5	4.52804e-06	0.000000000000000E+000	4.52804e-06	0.0000000E+000	5	6.78413e-07
2	0	0	0	0	0	0	47.1096	-0.300004	-0.300129	-0.00221791	2.8666e-05	2.8666e-05	41	-5.65102e-06	11	1.22362e-09	1.69616e-09	0.000000000000000E+000	760157	9.3	5.65102e-06	0.000000000000000E+000	5.65102e-06	0.0000000E+000	5	6.65658e-07
2	1	0	0	0	0	0	48.9096	-0.300004	-0.300171	0.0026046	2.71185e-05	2.71185e-05	41	1.6799e-07	12	5.04271e-11	0.000000000000000E+000	52707.9	0.000000000000000E+000	0.4	0.000000000000000E+000	1.6799e-07	1.6799e-07	0.0000000E+000	6	-7.81824e-07
2	0	0	0	0	0	0	50.7096	-0.300004	-0.300144	-0.00190923	3.40038e-05	3.40038e-05	41	-2.33321e-07	13	6.94495e-10	7.00304e-11	167572	73396.4	0.5	2.33321e-07	0.000000000000000E+000	2.33321e-07	0.0000000E+000	6	5.73046e-07
2	0	0	0	0	0	0	52.5096	-0.300004	-0.300148	-0.0017028	3.05017e-05	3.05017e-05	41	-1.20613e-06	13	6.94495e-10	3.62014e-10	167572	569125	2.3	1.20613e-06	0.000000000000000E+000	1.20613e-06	0.0000000E+000	6	5.11092e-07
2	0	0	0	0	0	0	54.3096	-0.300004	-0.300083	-0.00213001	2.65625e-05	2.65625e-05	41	-2.30036e-06	13	6.94495e-10	6.90412e-10	167572	114023	4.1	2.30036e-06	0.000000000000000E+000	2.30036e-06	0.0000000E+000	6	6.3918e-07
2	0	0	0	0	0	0	56.1096	-0.300004	-0.300129	-0.00113979	2.28556e-05	2.28556e-05	41	-3.33005e-06	13	6.94495e-10	9.99455e-10	167572	448446	5.9	3.33005e-06	0.000000000000000E+000	3.33005e-06	0.0000000E+000	6	3.42085e-07
2	1	0	0	0	0	0	57.9096	-0.300004	-0.300129	0.00965763	3.17872e-05	3.17872e-05	41	2.49538e-06	14	7.48921e-10	0.000000000000000E+000	180714	0.000000000000000E+000	1.6	0.000000000000000E+000	2.49538e-06	2.49538e-06	0.0000000E+000	7	-2.89854e-06
2	0	0	0	0	0	0	59.7096	-0.300004	-0.300118	-0.00188395	3.36998e-05	3.36998e-05	41	-3.80347e-07	15	1.02252e-09	1.14153e-10	1.06896e+06	89560.3	0.9	3.80347e-07	0.000000000000000E+000	3.80347e-07	0.0000000E+000	7	5.65405e-07
2	0	0	0	0	0	0	61.5096	-0.300004	-0.300102	-0.00210044	3.00157e-05	3.00157e-05	41	-1.40369e-06	15	1.02252e-09	4.21285e-10	1.06896e+06	165424	2.7	1.40369e-06	0.000000000000000E+000	1.40369e-06	0.0000000E+000	7	6.30347e-07
2	0	0	0	0	0	0	63.3096	-0.300004	-0.30011	-0.00217793	2.6129e-05	2.6129e-05	41	-2.48332e-06	15	1.02252e-09	7.45317e-10	1.06896e+06	390085	4.5	2.48332e-06	0.000000000000000E+000	2.48332e-06	0.0000000E+000	7	6.5362e-07
2	0	0	0	0	0	0	65.1096	-0.300004	-0.300118	-0.00218155	2.21867e-05	2.21867e-05	41	-3.57841e-06	15	1.02252e-09	1.07399e-09	1.06896e+06	844254	6.3	3.57841e-06	0.000000000000000E+000	3.57841e-06	0.0000000E+000	7	6.54722e-07
2	0	0	0	0	0	0	66.9096	-0.300004	-0.300144	-0.00217257	1.82557e-05	1.82557e-05	41	-4.67038e-06	15	1.02252e-09	1.40172e-09	1.06896e+06	1.46156e+06	8.1	4.67038e-06	0.000000000000000E+000	4.67038e-06	0.0000000E+000	7	6.52085e-07
2	0	0	0	0	0	0	68.7096	-0.300004	-0.300171	-0.00222176	1.43003e-05	1.43003e-05	41	-5.76909e-06	15	1.02252e-09	1.73146e-09	1.06896e+06	542743	9.9	5.76909e-06	0.000000000000000E+000	5.76909e-06	0.0000000E+000	7	6.66907e-07
2	0	0	0	0	0	0	70.5096	-0.300004	-0.300144	-0.00219863	1.03187e-05	1.03187e-05	41	-6.87508e-06	15	1.02252e-09	2.06339e-09	1.06896e+06	2.15151e+06	11.7	6.87508e-06	0.000000000000000E+000	6.87508e-06	0.0000000E+000	7	6.59907e-07
2	0	0	0	0	0	0	72.3096	-0.300004	-0.300121	-0.00220447	6.31405e-06	6.31405e-06	41	-7.98749e-06	15	1.02252e-09	2.39724e-09	1.06896e+06	2.51265e+06	13.5	7.98749e-06	0.000000000000000E+000	7.98749e-06	0.0000000E+000	7	6.61608e-07
2	0	0	0	0	0	0	74.1096	-0.300004	-0.30016	-0.00222947	2.30068e-06	2.30068e-06	41	-9.10231e-06	15	1.02252e-09	2.73183e-09	1.06896e+06	1.22305e+06	15.3	9.10231e-06	0.000000000000000E+000	9.10231e-06	0.0000000E+000	7	6.69198e-07
2	0	0	0	0	0	0	75.7792	-0.300004	-0.300129	-0.00221877	-1.42839e-06	-1.42839e-06	41	-1.01382e-05	15	1.02252e-09	3.04271e-09	1.06896e+06	9.64291e+06	16.9696	1.01382e-05	0.000000000000000E+000	1.01382e-05	297.57	7	6.65918e-07