File: Fig 3/Fig 3_RRDE-np-Fe3O4_25mvs_disk.mpt
mode	ox/red	error	control changes	Ns changes	counter inc.	Ns	time/s	control/V	Ewe/V	<I>/mA	dQ/C	(Q-Qo)/C	I Range	Q charge/discharge/mA.h	half cycle	Energy charge/W.h	Energy discharge/W.h	Capacitance charge/µF	Capacitance discharge/µF	step time/s	Q discharge/mA.h	Q charge/mA.h	Capacity/mA.h	Efficiency/%	cycle number	P/W
2	1	1	0	0	0	0	0.1	-0.300024	-0.300249	0.0832208	8.32208e-06	8.32208e-06	41	2.31169e-06	0	6.94082e-10	0.000000000000000E+000	0.000000000000000E+000	0.000000000000000E+000	0.1	0.000000000000000E+000	2.31169e-06	2.31169e-06	0.0000000E+000	0.000000000000000E+000	-2.4987e-05
2	0	0	0	0	0	0	4	-0.300024	-0.300195	-0.000359365	2.78932e-05	2.78932e-05	41	-2.95356e-08	1	2.33506e-09	8.86694e-12	1.04622e+06	6954.73	0.4	2.95356e-08	0.000000000000000E+000	2.95356e-08	0.0000000E+000	0.000000000000000E+000	1.0788e-07
2	0	0	0	0	0	0	7.9	-0.300024	-0.300241	-0.00156903	2.33567e-05	2.33567e-05	41	-1.28968e-06	1	2.33506e-09	3.87185e-10	1.04622e+06	151841	4.3	1.28968e-06	0.000000000000000E+000	1.28968e-06	0.0000000E+000	0.000000000000000E+000	4.71088e-07
2	0	0	0	0	0	0	11.8	-0.300024	-0.300241	-0.00181363	1.64755e-05	1.64755e-05	41	-3.20111e-06	1	2.33506e-09	9.61023e-10	1.04622e+06	376882	8.2	3.20111e-06	0.000000000000000E+000	3.20111e-06	0.0000000E+000	0.000000000000000E+000	5.44525e-07
2	0	0	0	0	0	0	15.7	-0.300024	-0.300176	-0.00189965	9.09924e-06	9.09924e-06	41	-5.25009e-06	1	2.33506e-09	1.57614e-09	1.04622e+06	549081	12.1	5.25009e-06	0.000000000000000E+000	5.25009e-06	0.0000000E+000	0.000000000000000E+000	5.7023e-07
2	0	0	0	0	0	0	19.6	-0.300024	-0.300226	-0.00199257	1.48727e-06	1.48727e-06	41	-7.36452e-06	1	2.33506e-09	2.21091e-09	1.04622e+06	1.73412e+06	16	7.36452e-06	0.000000000000000E+000	7.36452e-06	0.0000000E+000	0.000000000000000E+000	5.98221e-07
2	0	0	0	0	0	0	23.5	-0.300024	-0.300157	-0.00185225	-6.09659e-06	-6.09659e-06	41	-9.47115e-06	1	2.33506e-09	2.84334e-09	1.04622e+06	637014	19.9	9.47115e-06	0.000000000000000E+000	9.47115e-06	0.0000000E+000	0.000000000000000E+000	5.55967e-07
2	0	0	0	0	0	0	27.4	-0.300024	-0.300241	-0.00123164	-1.2197e-05	-1.2197e-05	41	-1.11657e-05	1	2.33506e-09	3.35204e-09	1.04622e+06	1.31459e+06	23.8	1.11657e-05	0.000000000000000E+000	1.11657e-05	0.0000000E+000	0.000000000000000E+000	3.6979e-07
2	1	0	0	0	0	0	31.3	-0.300024	-0.30023	0.00723096	-8.64792e-06	-8.64792e-06	41	1.50914e-06	2	4.53046e-10	0.000000000000000E+000	48991.7	0.000000000000000E+000	1.7	0.000000000000000E+000	1.50914e-06	1.50914e-06	0.0000000E+000	1	-2.17095e-06
2	1	0	0	0	0	0	35.2	-0.300024	-0.300165	0.0144988	5.11576e-05	5.11576e-05	41	1.81218e-05	2	5.44002e-09	0.000000000000000E+000	1.42145e+06	0.000000000000000E+000	5.6	0.000000000000000E+000	1.81218e-05	1.81218e-05	0.0000000E+000	1	-4.35203e-06
2	1	0	0	0	0	0	39.1	-0.300024	-0.300195	0.000110294	7.20219e-05	7.20219e-05	41	2.39174e-05	2	7.17986e-09	0.000000000000000E+000	1.12593e+06	0.000000000000000E+000	9.5	0.000000000000000E+000	2.39174e-05	2.39174e-05	0.0000000E+000	1	-3.31096e-08
2	0	0	0	0	0	0	43	-0.300024	-0.300184	-0.00135979	6.84838e-05	6.84838e-05	41	-9.82794e-07	3	7.17986e-09	2.95017e-10	1.12593e+06	461936	3.8	9.82794e-07	0.000000000000000E+000	9.82794e-07	0.0000000E+000	1	4.08186e-07
2	0	0	0	0	0	0	46.9	-0.300024	-0.30018	-0.00184579	6.2022e-05	6.2022e-05	41	-2.77775e-06	3	7.17986e-09	8.33808e-10	1.12593e+06	871534	7.7	2.77775e-06	0.000000000000000E+000	2.77775e-06	0.0000000E+000	1	5.54069e-07
2	0	0	0	0	0	0	50.8	-0.300024	-0.300211	-0.00193439	5.46658e-05	5.46658e-05	41	-4.82113e-06	3	7.17986e-09	1.44721e-09	1.12593e+06	907124	11.6	4.82113e-06	0.000000000000000E+000	4.82113e-06	0.0000000E+000	1	5.80726e-07
2	0	0	0	0	0	0	54.7	-0.300024	-0.300207	-0.00176361	4.72163e-05	4.72163e-05	41	-6.89045e-06	3	7.17986e-09	2.06841e-09	1.12593e+06	1.62249e+06	15.5	6.89045e-06	0.000000000000000E+000	6.89045e-06	0.0000000E+000	1	5.29448e-07
2	1	0	0	0	0	0	58.6	-0.300024	-0.300165	0.00114386	4.36421e-05	4.36421e-05	41	1.13185e-07	4	3.39747e-11	0.000000000000000E+000	21296.5	0.000000000000000E+000	0.6	0.000000000000000E+000	1.13185e-07	1.13185e-07	0.0000000E+000	2	-3.43347e-07
2	1	0	0	0	0	0	62.5	-0.300024	-0.300126	0.00566602	6.14431e-05	6.14431e-05	41	5.05792e-06	4	1.51827e-09	0.000000000000000E+000	953161	0.000000000000000E+000	4.5	0.000000000000000E+000	5.05792e-06	5.05792e-06	0.0000000E+000	2	-1.70052e-06
2	0	0	0	0	0	0	66.4	-0.300024	-0.300207	-6.57222e-05	7.14575e-05	7.14575e-05	41	-1.82562e-09	5	2.35381e-09	5.47893e-13	670838	0.000000000000000E+000	0.000000000000000E+000	1.82562e-09	0.000000000000000E+000	1.82562e-09	0.0000000E+000	2	1.97303e-08
2	0	0	0	0	0	0	70.3	-0.300024	-0.300188	-0.00164878	6.71866e-05	6.71866e-05	41	-1.1882e-06	5	2.35381e-09	3.56683e-10	670838	223916	3.9	1.1882e-06	0.000000000000000E+000	1.1882e-06	0.0000000E+000	2	4.94944e-07
2	0	0	0	0	0	0	74.2	-0.300024	-0.300237	-0.00198468	5.99644e-05	5.99644e-05	41	-3.19435e-06	5	2.35381e-09	9.58912e-10	670838	375720	7.8	3.19435e-06	0.000000000000000E+000	3.19435e-06	0.0000000E+000	2	5.95875e-07
2	0	0	0	0	0	0	78.1	-0.300024	-0.300172	-0.00210489	5.19613e-05	5.19613e-05	41	-5.41744e-06	5	2.35381e-09	1.62627e-09	670838	566584	11.7	5.41744e-06	0.000000000000000E+000	5.41744e-06	0.0000000E+000	2	6.3183e-07
2	0	0	0	0	0	0	82	-0.300024	-0.300169	-0.00217898	4.35809e-05	4.35809e-05	41	-7.74534e-06	5	2.35381e-09	2.32508e-09	670838	729233	15.6	7.74534e-06	0.000000000000000E+000	7.74534e-06	0.0000000E+000	2	6.54062e-07
2	0	0	0	0	0	0	85.9	-0.300024	-0.300149	-0.00218594	3.50415e-05	3.50415e-05	41	-1.01174e-05	5	2.35381e-09	3.03712e-09	670838	635208	19.5	1.01174e-05	0.000000000000000E+000	1.01174e-05	0.0000000E+000	2	6.56108e-07
2	0	0	0	0	0	0	89.8	-0.300024	-0.300149	-0.00216969	2.65501e-05	2.65501e-05	41	-1.24761e-05	5	2.35381e-09	3.74515e-09	670838	783296	23.4	1.24761e-05	0.000000000000000E+000	1.24761e-05	0.0000000E+000	2	6.5123e-07
2	0	0	0	0	0	0	93.7	-0.300024	-0.300165	-0.00211446	1.81735e-05	1.81735e-05	41	-1.4803e-05	5	2.35381e-09	4.44364e-09	670838	1.26728e+06	27.3	1.4803e-05	0.000000000000000E+000	1.4803e-05	0.0000000E+000	2	6.34686e-07
2	0	0	0	0	0	0	97.6	-0.300024	-0.300184	-0.00208392	9.98414e-06	9.98414e-06	41	-1.70778e-05	5	2.35381e-09	5.12651e-09	670838	2.67912e+06	31.2	1.70778e-05	0.000000000000000E+000	1.70778e-05	0.0000000E+000	2	6.25559e-07
2	0	0	0	0	0	0	101.5	-0.300024	-0.300195	-0.00205502	1.92775e-06	1.92775e-06	41	-1.93157e-05	5	2.35381e-09	5.79831e-09	670838	6.07618e+06	35.1	1.93157e-05	0.000000000000000E+000	1.93157e-05	0.0000000E+000	2	6.16909e-07
2	0	0	0	0	0	0	105.4	-0.300024	-0.300241	-0.00199897	-5.9655e-06	-5.9655e-06	41	-2.15082e-05	5	2.35381e-09	6.45648e-09	670838	2.24944e+06	39	2.15082e-05	0.000000000000000E+000	2.15082e-05	0.0000000E+000	2	6.00175e-07
2	0	0	0	0	0	0	109.3	-0.300024	-0.300222	-0.00189476	-1.36069e-05	-1.36069e-05	41	-2.36308e-05	5	2.35381e-09	7.09369e-09	670838	5.55352e+06	42.9	2.36308e-05	0.000000000000000E+000	2.36308e-05	0.0000000E+000	2	5.68849e-07
2	0	0	0	0	0	0	113.2	-0.300024	-0.300245	-0.00153548	-2.04694e-05	-2.04694e-05	41	-2.55371e-05	5	2.35381e-09	7.66593e-09	670838	2.40435e+06	46.8	2.55371e-05	0.000000000000000E+000	2.55371e-05	0.0000000E+000	2	4.61021e-07
2	0	0	0	0	0	0	117.1	-0.300024	-0.300203	-0.00109683	-2.54666e-05	-2.54666e-05	41	-2.69252e-05	5	2.35381e-09	8.08264e-09	670838	2.54098e+07	50.7	2.69252e-05	0.000000000000000E+000	2.69252e-05	0.0000000E+000	2	3.29271e-07
2	0	0	0	0	0	0	121	-0.300024	-0.300176	-0.000938163	-2.92865e-05	-2.92865e-05	41	-2.79863e-05	5	2.35381e-09	8.40118e-09	670838	3.29496e+06	54.6	2.79863e-05	0.000000000000000E+000	2.79863e-05	0.0000000E+000	2	2.81614e-07
2	0	0	0	0	0	0	124.9	-0.300024	-0.300165	-0.00154691	-3.44386e-05	-3.44386e-05	41	-2.94174e-05	5	2.35381e-09	8.83081e-09	670838	2.51843e+06	58.5	2.94174e-05	0.000000000000000E+000	2.94174e-05	0.0000000E+000	2	4.64329e-07
2	0	0	0	0	0	0	128.8	-0.300024	-0.300214	-0.0016324	-4.05514e-05	-4.05514e-05	41	-3.11154e-05	5	2.35381e-09	9.34055e-09	670838	1.4625e+07	62.4	3.11154e-05	0.000000000000000E+000	3.11154e-05	0.0000000E+000	2	4.90069e-07
2	0	0	0	0	0	0	132.7	-0.300024	-0.300191	-0.00171285	-4.71062e-05	-4.71062e-05	41	-3.29362e-05	5	2.35381e-09	9.88717e-09	670838	7.75548e+06	66.3	3.29362e-05	0.000000000000000E+000	3.29362e-05	0.0000000E+000	2	5.14183e-07
2	0	0	0	0	0	0	136.6	-0.300024	-0.300222	-0.0017025	-5.38086e-05	-5.38086e-05	41	-3.4798e-05	5	2.35381e-09	1.04461e-08	670838	8.17793e+06	70.2	3.4798e-05	0.000000000000000E+000	3.4798e-05	0.0000000E+000	2	5.11127e-07
2	0	0	0	0	0	0	140.5	-0.300024	-0.300165	-0.000629423	-5.90475e-05	-5.90475e-05	41	-3.62532e-05	5	2.35381e-09	1.08829e-08	670838	3.10364e+06	74.1	3.62532e-05	0.000000000000000E+000	3.62532e-05	0.0000000E+000	2	1.88931e-07
2	1	0	0	0	0	0	144.4	-0.300024	-0.300191	0.00208348	-5.5589e-05	-5.5589e-05	41	1.03721e-06	6	3.11366e-10	0.000000000000000E+000	162715	0.000000000000000E+000	2.9	0.000000000000000E+000	1.03721e-06	1.03721e-06	0.0000000E+000	3	-6.25442e-07
2	0	0	0	0	0	0	148.3	-0.300024	-0.300199	-0.000354535	-5.13675e-05	-5.13675e-05	41	-3.15893e-08	7	6.72869e-10	9.48349e-12	162422	9911.34	0.5	3.15893e-08	0.000000000000000E+000	3.15893e-08	0.0000000E+000	3	1.06431e-07
2	0	0	0	0	0	0	152.2	-0.300024	-0.300195	-0.00157282	-5.58018e-05	-5.58018e-05	41	-1.26333e-06	7	6.72869e-10	3.79246e-10	162422	596115	4.4	1.26333e-06	0.000000000000000E+000	1.26333e-06	0.0000000E+000	3	4.72153e-07
2	0	0	0	0	0	0	156.1	-0.300024	-0.300188	-0.00195555	-6.25659e-05	-6.25659e-05	41	-3.14224e-06	7	6.72869e-10	9.43278e-10	162422	0.000000000000000E+000	8.3	3.14224e-06	0.000000000000000E+000	3.14224e-06	0.0000000E+000	3	5.87033e-07
2	0	0	0	0	0	0	160	-0.300024	-0.30013	-0.00195142	-6.99836e-05	-6.99836e-05	41	-5.20271e-06	7	6.72869e-10	1.56177e-09	162422	326476	12.2	5.20271e-06	0.000000000000000E+000	5.20271e-06	0.0000000E+000	3	5.85681e-07
2	0	0	0	0	0	0	163.9	-0.300024	-0.300218	-0.00211785	-7.78138e-05	-7.78138e-05	41	-7.3778e-06	7	6.72869e-10	2.21469e-09	162422	868624	16.1	7.3778e-06	0.000000000000000E+000	7.3778e-06	0.0000000E+000	3	6.35818e-07
2	0	0	0	0	0	0	167.8	-0.300024	-0.300176	-0.00224407	-8.64545e-05	-8.64545e-05	41	-9.77799e-06	7	6.72869e-10	2.93518e-09	162422	3.0679e+06	20	9.77799e-06	0.000000000000000E+000	9.77799e-06	0.0000000E+000	3	6.73615e-07
2	0	0	0	0	0	0	170.044	-0.300024	-0.300226	-0.00221827	-9.14413e-05	-9.14413e-05	41	-1.11632e-05	7	6.72869e-10	3.351e-09	162422	1.05103e+06	22.2436	1.11632e-05	0.000000000000000E+000	1.11632e-05	498.035	3	6.65983e-07