File: Fig 3/Fig 3_RRDE-np-Fe3O4_500mvs_disk.mpt
mode	ox/red	error	control changes	Ns changes	counter inc.	Ns	time/s	control/V	Ewe/V	<I>/mA	dQ/C	(Q-Qo)/C	I Range	Q charge/discharge/mA.h	half cycle	Energy charge/W.h	Energy discharge/W.h	Capacitance charge/µF	Capacitance discharge/µF	step time/s	Q discharge/mA.h	Q charge/mA.h	Capacity/mA.h	Efficiency/%	cycle number	P/W
2	1	1	0	0	0	0	0.1	-0.300024	-0.300253	0.100441	1.00441e-05	1.00441e-05	41	2.79004e-06	0	8.37717e-10	0.000000000000000E+000	0.000000000000000E+000	0.000000000000000E+000	0.1	0.000000000000000E+000	2.79004e-06	2.79004e-06	0.0000000E+000	0.000000000000000E+000	-3.01578e-05
2	1	0	0	0	0	0	0.8	-0.300024	-0.300234	0.00318453	1.68953e-05	1.68953e-05	41	4.69313e-06	0	1.40909e-09	0.000000000000000E+000	883040	0.000000000000000E+000	0.8	0.000000000000000E+000	4.69313e-06	4.69313e-06	0.0000000E+000	0.000000000000000E+000	-9.56103e-07
2	1	0	0	0	0	0	1.5	-0.300024	-0.300214	0.000394153	1.77742e-05	1.77742e-05	41	4.93728e-06	0	1.48239e-09	0.000000000000000E+000	464850	0.000000000000000E+000	1.5	0.000000000000000E+000	4.93728e-06	4.93728e-06	0.0000000E+000	0.000000000000000E+000	-1.1833e-07
2	1	0	0	0	0	0	2.2	-0.300024	-0.300211	0.0479614	2.88006e-05	2.88006e-05	41	8.00018e-06	0	2.40197e-09	0.000000000000000E+000	684896	0.000000000000000E+000	2.2	0.000000000000000E+000	8.00018e-06	8.00018e-06	0.0000000E+000	0.000000000000000E+000	-1.43985e-05
2	1	0	0	0	0	0	2.9	-0.300024	-0.300214	0.00371237	4.25632e-05	4.25632e-05	41	1.18231e-05	0	3.54976e-09	0.000000000000000E+000	1.11316e+06	0.000000000000000E+000	2.9	0.000000000000000E+000	1.18231e-05	1.18231e-05	0.0000000E+000	0.000000000000000E+000	-1.11451e-06
2	1	0	0	0	0	0	3.6	-0.300024	-0.300222	0.00488737	4.75174e-05	4.75174e-05	41	1.31993e-05	0	3.96292e-09	0.000000000000000E+000	1.55401e+06	0.000000000000000E+000	3.6	0.000000000000000E+000	1.31993e-05	1.31993e-05	0.0000000E+000	0.000000000000000E+000	-1.4673e-06
2	0	0	0	0	0	0	4.3	-0.300024	-0.300214	-0.00138313	4.70754e-05	4.70754e-05	41	-1.69633e-07	1	3.97699e-09	5.09302e-11	2.08073e+06	12292.2	0.5	1.69633e-07	0.000000000000000E+000	1.69633e-07	0.0000000E+000	0.000000000000000E+000	4.15237e-07
2	0	0	0	0	0	0	5	-0.300024	-0.300222	-0.00172116	4.59676e-05	4.59676e-05	41	-4.77356e-07	1	3.97699e-09	1.4332e-10	2.08073e+06	40866.6	1.2	4.77356e-07	0.000000000000000E+000	4.77356e-07	0.0000000E+000	0.000000000000000E+000	5.16729e-07
2	1	0	0	0	0	0	5.7	-0.300024	-0.300226	-0.000451214	4.49064e-05	4.49064e-05	41	-7.72132e-07	1	3.97699e-09	2.31815e-10	2.08073e+06	72753.8	1.9	7.72132e-07	0.000000000000000E+000	7.72132e-07	5.82911	0.000000000000000E+000	1.35466e-07
2	1	0	0	0	0	0	6.4	-0.300024	-0.300211	0.00512245	5.06195e-05	5.06195e-05	41	1.58698e-06	2	4.76395e-10	0.000000000000000E+000	748830	0.000000000000000E+000	0.6	0.000000000000000E+000	1.58698e-06	1.58698e-06	0.0000000E+000	1	-1.53781e-06
2	0	0	0	0	0	0	7.1	-0.300024	-0.300218	-0.00101987	5.11494e-05	5.11494e-05	41	-5.7649e-08	3	5.37896e-10	1.73068e-11	842196	7754.75	0.2	5.7649e-08	0.000000000000000E+000	5.7649e-08	0.0000000E+000	1	3.06183e-07
2	1	0	0	0	0	0	7.8	-0.300024	-0.300195	0.00645208	5.48889e-05	5.48889e-05	41	1.05624e-06	4	3.17098e-10	0.000000000000000E+000	498398	0.000000000000000E+000	0.5	0.000000000000000E+000	1.05624e-06	1.05624e-06	0.0000000E+000	2	-1.93689e-06
2	0	0	0	0	0	0	8.5	-0.300024	-0.30023	-0.0010655	5.49656e-05	5.49656e-05	41	-9.95019e-08	5	3.53372e-10	2.98731e-11	369307	46950.9	0.4	9.95019e-08	0.000000000000000E+000	9.95019e-08	0.0000000E+000	2	3.19896e-07
2	0	0	0	0	0	0	9.2	-0.300024	-0.300241	-0.00148797	5.40535e-05	5.40535e-05	41	-3.52851e-07	5	3.53372e-10	1.05938e-10	369307	66494.4	1.1	3.52851e-07	0.000000000000000E+000	3.52851e-07	0.0000000E+000	2	4.46751e-07
2	1	0	0	0	0	0	9.9	-0.300024	-0.30026	0.000405718	5.3213e-05	5.3213e-05	41	1.12699e-08	6	3.38383e-12	0.000000000000000E+000	0.000000000000000E+000	0.000000000000000E+000	0.000000000000000E+000	0.000000000000000E+000	1.12699e-08	1.12699e-08	0.0000000E+000	3	-1.21821e-07
2	1	0	0	0	0	0	10.6	-0.300024	-0.300234	0.00375261	5.88707e-05	5.88707e-05	41	1.58285e-06	6	4.75224e-10	0.000000000000000E+000	212920	0.000000000000000E+000	0.7	0.000000000000000E+000	1.58285e-06	1.58285e-06	0.0000000E+000	3	-1.12666e-06
2	0	0	0	0	0	0	11.3	-0.300024	-0.300264	-0.00159667	5.85315e-05	5.85315e-05	41	-1.41172e-07	7	4.89321e-10	4.2384e-11	153448	16620.9	0.4	1.41172e-07	0.000000000000000E+000	1.41172e-07	0.0000000E+000	3	4.79423e-07
2	1	0	0	0	0	0	12	-0.300024	-0.300253	0.00653791	6.14453e-05	6.14453e-05	41	8.54125e-07	8	2.56447e-10	0.000000000000000E+000	57447	0.000000000000000E+000	0.4	0.000000000000000E+000	8.54125e-07	8.54125e-07	0.0000000E+000	4	-1.96303e-06
2	1	0	0	0	0	0	12.7	-0.300024	-0.300211	0.0181284	6.82413e-05	6.82413e-05	41	2.74191e-06	8	8.23196e-10	0.000000000000000E+000	860289	0.000000000000000E+000	1.1	0.000000000000000E+000	2.74191e-06	2.74191e-06	0.0000000E+000	4	-5.44235e-06
2	1	0	0	0	0	0	13.4	-0.300024	-0.300245	0.0123108	7.91079e-05	7.91079e-05	41	5.7604e-06	8	1.72941e-09	0.000000000000000E+000	452133	0.000000000000000E+000	1.8	0.000000000000000E+000	5.7604e-06	5.7604e-06	0.0000000E+000	4	-3.69626e-06
2	1	0	0	0	0	0	14.1	-0.300024	-0.300245	0.00812189	8.57962e-05	8.57962e-05	41	7.61825e-06	8	2.2872e-09	0.000000000000000E+000	597956	0.000000000000000E+000	2.5	0.000000000000000E+000	7.61825e-06	7.61825e-06	0.0000000E+000	4	-2.43856e-06
2	1	0	0	0	0	0	14.8	-0.300024	-0.300237	0.00655038	9.07633e-05	9.07633e-05	41	8.99801e-06	8	2.70144e-09	0.000000000000000E+000	847834	0.000000000000000E+000	3.2	0.000000000000000E+000	8.99801e-06	8.99801e-06	0.0000000E+000	4	-1.96667e-06
2	1	0	0	0	0	0	15.5	-0.300024	-0.300226	0.00589058	9.50801e-05	9.50801e-05	41	1.01971e-05	8	3.06146e-09	0.000000000000000E+000	1.37168e+06	0.000000000000000E+000	3.9	0.000000000000000E+000	1.01971e-05	1.01971e-05	0.0000000E+000	4	-1.76851e-06
2	1	0	0	0	0	0	16.2	-0.300024	-0.300272	0.00547945	9.90196e-05	9.90196e-05	41	1.12914e-05	8	3.39e-09	0.000000000000000E+000	559687	0.000000000000000E+000	4.6	0.000000000000000E+000	1.12914e-05	1.12914e-05	0.0000000E+000	4	-1.64533e-06
2	1	0	0	0	0	0	16.9	-0.300024	-0.300214	0.00531094	0.000102786	0.000102786	41	1.23376e-05	8	3.70407e-09	0.000000000000000E+000	2.90512e+06	0.000000000000000E+000	5.3	0.000000000000000E+000	1.23376e-05	1.23376e-05	0.0000000E+000	4	-1.59442e-06
2	1	0	0	0	0	0	17.6	-0.300024	-0.300276	0.00512811	0.000106424	0.000106424	41	1.33482e-05	8	4.00753e-09	0.000000000000000E+000	628621	0.000000000000000E+000	6	0.000000000000000E+000	1.33482e-05	1.33482e-05	0.0000000E+000	4	-1.53985e-06
2	1	0	0	0	0	0	18.3	-0.300024	-0.300222	0.0050814	0.000109997	0.000109997	41	1.43408e-05	8	4.30552e-09	0.000000000000000E+000	2.25267e+06	0.000000000000000E+000	6.7	0.000000000000000E+000	1.43408e-05	1.43408e-05	0.0000000E+000	4	-1.52555e-06
2	1	0	0	0	0	0	19	-0.300024	-0.300253	0.0050137	0.000113531	0.000113531	41	1.53225e-05	8	4.60026e-09	0.000000000000000E+000	1.03056e+06	0.000000000000000E+000	7.4	0.000000000000000E+000	1.53225e-05	1.53225e-05	0.0000000E+000	4	-1.50538e-06
2	1	0	0	0	0	0	19.7	-0.300024	-0.300256	0.00487147	0.000116983	0.000116983	41	1.62812e-05	8	4.88811e-09	0.000000000000000E+000	1.0222e+06	0.000000000000000E+000	8.1	0.000000000000000E+000	1.62812e-05	1.62812e-05	0.0000000E+000	4	-1.46269e-06
2	1	0	0	0	0	0	20.4	-0.300024	-0.300241	0.00478921	0.00012035	0.00012035	41	1.72165e-05	8	5.1689e-09	0.000000000000000E+000	1.47391e+06	0.000000000000000E+000	8.8	0.000000000000000E+000	1.72165e-05	1.72165e-05	0.0000000E+000	4	-1.43792e-06
2	1	0	0	0	0	0	21.1	-0.300024	-0.30031	0.00466609	0.000123645	0.000123645	41	1.81318e-05	8	5.44371e-09	0.000000000000000E+000	588778	0.000000000000000E+000	9.5	0.000000000000000E+000	1.81318e-05	1.81318e-05	0.0000000E+000	4	-1.40127e-06
2	1	0	0	0	0	0	21.8	-0.300024	-0.300234	0.00456922	0.000126883	0.000126883	41	1.90311e-05	8	5.7137e-09	0.000000000000000E+000	1.9921e+06	0.000000000000000E+000	10.2	0.000000000000000E+000	1.90311e-05	1.90311e-05	0.0000000E+000	4	-1.37183e-06
2	1	0	0	0	0	0	22.5	-0.300024	-0.300222	0.00437472	0.000129992	0.000129992	41	1.98948e-05	8	5.97297e-09	0.000000000000000E+000	3.12511e+06	0.000000000000000E+000	10.9	0.000000000000000E+000	1.98948e-05	1.98948e-05	0.0000000E+000	4	-1.31339e-06
2	1	0	0	0	0	0	23.2	-0.300024	-0.300199	0.00423859	0.000132977	0.000132977	41	2.07241e-05	8	6.22198e-09	0.000000000000000E+000	0.000000000000000E+000	0.000000000000000E+000	11.6	0.000000000000000E+000	2.07241e-05	2.07241e-05	0.0000000E+000	4	-1.27242e-06
2	1	0	0	0	0	0	23.9	-0.300024	-0.300207	0.00402806	0.000135856	0.000135856	41	2.15236e-05	8	6.462e-09	0.000000000000000E+000	1.01561e+07	0.000000000000000E+000	12.3	0.000000000000000E+000	2.15236e-05	2.15236e-05	0.0000000E+000	4	-1.20925e-06
2	1	0	0	0	0	0	24.6	-0.300024	-0.300234	0.00380615	0.000138586	0.000138586	41	2.22821e-05	8	6.68971e-09	0.000000000000000E+000	2.3324e+06	0.000000000000000E+000	13	0.000000000000000E+000	2.22821e-05	2.22821e-05	0.0000000E+000	4	-1.14273e-06
2	1	0	0	0	0	0	25.3	-0.300024	-0.300199	0.00357074	0.000141156	0.000141156	41	2.29959e-05	8	6.90402e-09	0.000000000000000E+000	0.000000000000000E+000	0.000000000000000E+000	13.7	0.000000000000000E+000	2.29959e-05	2.29959e-05	0.0000000E+000	4	-1.07193e-06
2	1	0	0	0	0	0	26	-0.300024	-0.300245	0.0033095	0.000143551	0.000143551	41	2.36614e-05	8	7.1038e-09	0.000000000000000E+000	1.85718e+06	0.000000000000000E+000	14.4	0.000000000000000E+000	2.36614e-05	2.36614e-05	0.0000000E+000	4	-9.93662e-07
2	1	0	0	0	0	0	26.5464	-0.300024	-0.300203	0.00302571	0.000145278	0.000145278	41	2.41411e-05	8	7.2478e-09	0.000000000000000E+000	2.27824e+07	0.000000000000000E+000	14.9464	0.000000000000000E+000	2.41411e-05	2.41411e-05	0.0000000E+000	4	-9.08328e-07