File: Fig 3/Fig 3_RRDE-np-Fe2O3_500mvs_ring.mpt
mode	ox/red	error	control changes	counter inc.	time/s	control/V	Ewe/V	<I>/mA	cycle number	(Q-Qo)/C	I Range	step time/s	P/W
2	0	1	1	0	0.000000000000000E+000	-0.300026	-0.30098	-1.81993	1	0.0000000E+000	39	0.000000000000000E+000	0.000547763
2	0	0	1	0	0.1013	-0.350668	-0.351003	-0.0425859	1	-7.64189e-06	39	0.1011	1.49478e-05
2	0	0	1	0	0.2053	-0.402659	-0.402979	-0.0493249	1	-1.24617e-05	39	0.2051	1.98769e-05
2	0	0	1	0	0.3093	-0.45465	-0.454986	-0.0388968	1	-1.47505e-05	39	0.05	1.76975e-05
2	0	0	1	0	0.4133	-0.506641	-0.506963	-0.0487964	1	-1.92914e-05	39	0.154	2.47379e-05
2	0	0	1	0	0.5173	-0.558633	-0.558961	-0.0561779	1	-2.48518e-05	39	0.258	3.14012e-05
2	0	0	1	0	0.6213	-0.610724	-0.611068	-0.0655712	1	-3.12602e-05	39	0.362	4.00684e-05
2	0	0	1	0	0.7253	-0.662715	-0.663054	-0.0753266	1	-3.84854e-05	39	0.466	4.99456e-05
2	0	0	1	0	0.8293	-0.714706	-0.715	-0.0824817	1	-4.65462e-05	39	0.57	5.89744e-05
2	0	0	1	0	0.9333	-0.766697	-0.767048	-0.08992	1	-5.55433e-05	39	0.674	6.8973e-05
2	0	0	1	0	1.0373	-0.818688	-0.819026	-0.102109	1	-6.5635e-05	39	0.778	8.36302e-05
2	0	0	1	0	1.1413	-0.87068	-0.871032	-0.118598	1	-7.69975e-05	39	0.882	0.000103302
2	0	0	1	0	1.2453	-0.922671	-0.923021	-0.131727	1	-8.98245e-05	39	0.986	0.000121587
2	0	0	1	0	1.3493	-0.974662	-0.974987	-0.146407	1	-0.000104301	39	1.09	0.000142745
2	0	0	1	0	1.4533	-1.02665	-1.02697	-0.177975	1	-0.000121106	39	1.194	0.000182775
2	0	0	1	0	1.5573	-1.07864	-1.07896	-0.265901	1	-0.000143851	39	1.298	0.000286896
2	0	0	1	0	1.6613	-1.13064	-1.13096	-0.370807	1	-0.000176727	39	1.402	0.000419367
2	0	0	1	0	1.7653	-1.18269	-1.18301	-1.24141	1	-0.000239582	39	1.506	0.00146861
2	0	0	1	0	1.8693	-1.23472	-1.23504	-3.78086	1	-0.000509574	39	1.61	0.00466953
2	0	0	1	0	1.9733	-1.28671	-1.28701	-5.46387	1	-0.000982872	39	1.714	0.00703206
2	0	0	1	0	2.0773	-1.3387	-1.33903	-9.19815	1	-0.0017095	39	1.818	0.0123166
2	0	0	1	1	2.1755	-1.3123	-1.31265	-6.60397	2	-0.00259025	39	1.9162	0.0086687
2	0	0	1	1	2.2795	-1.26031	-1.26065	-2.38424	2	-0.00302795	39	2.0202	0.0030057
2	0	0	1	1	2.3835	-1.20832	-1.20863	-0.975745	2	-0.00318741	39	2.1242	0.00117932
2	0	0	1	1	2.4875	-1.15623	-1.15657	-0.439521	2	-0.00325823	39	2.2282	0.000508337
2	0	0	1	1	2.5915	-1.10424	-1.10456	-0.149295	2	-0.00328763	39	2.3322	0.000164905
2	1	0	1	1	2.6955	-1.05225	-1.05257	0.0603363	2	-0.00329184	39	0.03	-6.35085e-05
2	1	0	1	1	2.7995	-1.00026	-1.00059	0.486242	2	-0.00326615	39	0.134	-0.000486531
2	1	0	1	1	2.9035	-0.948266	-0.948583	0.566076	2	-0.00320414	39	0.238	-0.000536971
2	1	0	1	1	3.0075	-0.896275	-0.896604	0.572108	2	-0.00314786	39	0.342	-0.000512955
2	1	0	1	1	3.1115	-0.844284	-0.84463	0.62056	2	-0.0030836	39	0.446	-0.000524144
2	1	0	1	1	3.2155	-0.792293	-0.792619	0.550026	2	-0.0030228	39	0.55	-0.000435962
2	1	0	1	1	3.3195	-0.740302	-0.740624	0.51554	2	-0.00296795	39	0.654	-0.000381821
2	1	0	1	1	3.4235	-0.688311	-0.688628	0.498839	2	-0.00291547	39	0.758	-0.000343514
2	1	0	1	1	3.5275	-0.636319	-0.636631	0.499822	2	-0.00286356	39	0.862	-0.000318202
2	1	0	1	1	3.6315	-0.584228	-0.58457	0.524868	2	-0.00281035	39	0.966	-0.000306822
2	1	0	1	1	3.7355	-0.532237	-0.532579	0.552262	2	-0.00275437	39	1.07	-0.000294123
2	1	0	1	1	3.8395	-0.480246	-0.48058	0.550575	2	-0.00269675	39	1.174	-0.000264595
2	1	0	1	1	3.9435	-0.428255	-0.428601	0.505442	2	-0.00264148	39	1.278	-0.000216633
2	1	0	1	1	4.0475	-0.376264	-0.376606	0.4519	2	-0.00259163	39	1.382	-0.000170188
2	1	0	1	1	4.1515	-0.324272	-0.32458	0.410278	2	-0.00254698	39	1.486	-0.000133168
2	1	0	1	1	4.2495	-0.324572	-0.324908	0.210518	2	-0.00251421	39	1.584	-6.83992e-05
2	1	0	1	1	4.3535	-0.376564	-0.37689	0.0935818	2	-0.00249951	39	1.688	-3.52701e-05
2	1	0	1	1	4.4575	-0.428555	-0.428874	0.0399125	2	-0.00249295	39	1.792	-1.71174e-05
2	1	0	1	1	4.5615	-0.480546	-0.480848	0.00900372	2	-0.00249043	39	1.896	-4.32942e-06
2	0	0	1	1	4.6655	-0.532537	-0.532851	-0.00625011	2	-0.0024903	39	0.042	3.33038e-06
2	0	0	1	1	4.7695	-0.584528	-0.584872	-0.0183927	2	-0.00249176	39	0.146	1.07574e-05
2	0	0	1	1	4.8735	-0.636619	-0.636949	-0.0304042	2	-0.00249441	39	0.25	1.9366e-05
2	0	0	1	1	4.9775	-0.68861	-0.688928	-0.0428329	2	-0.00249808	39	0.354	2.95088e-05
2	0	0	1	1	5.0815	-0.740602	-0.740933	-0.0527362	2	-0.00250283	39	0.458	3.90739e-05
2	0	0	1	1	5.1855	-0.792593	-0.792923	-0.0680157	2	-0.00250912	39	0.562	5.39312e-05
2	0	0	1	1	5.2895	-0.844584	-0.844907	-0.099903	2	-0.00251796	39	0.666	8.44088e-05
2	0	0	1	1	5.3935	-0.896575	-0.896885	-0.139372	2	-0.00253029	39	0.77	0.000125001
2	0	0	1	1	5.4975	-0.948566	-0.948891	-0.182404	2	-0.0025466	39	0.874	0.000173082
2	0	0	1	1	5.6015	-1.00056	-1.00088	-0.286035	2	-0.00256994	39	0.978	0.000286286
2	0	0	1	1	5.7055	-1.05255	-1.0529	-0.633954	2	-0.00261482	39	1.082	0.000667488
2	0	0	1	1	5.8095	-1.10454	-1.10486	-1.84881	2	-0.00274346	39	1.186	0.00204267
2	0	0	1	1	5.9135	-1.15653	-1.15686	-0.869461	2	-0.00286306	39	1.29	0.00100585
2	0	0	1	1	6.0175	-1.20862	-1.20892	-0.804774	2	-0.0029499	39	1.394	0.00097291
2	0	0	1	1	6.1215	-1.26061	-1.26092	-1.12482	2	-0.00304399	39	1.498	0.0014183
2	0	0	1	1	6.2255	-1.3126	-1.31293	-3.65971	2	-0.00326042	39	1.602	0.00480494
2	0	0	1	0	6.3239	-1.3383	-1.33864	-6.82395	3	-0.00385841	39	1.7004	0.00913483
2	0	0	1	0	6.4279	-1.28631	-1.28662	-2.37846	3	-0.00431661	39	1.8044	0.00306018
2	0	0	1	0	6.5319	-1.23432	-1.23464	-0.68852	3	-0.00445496	39	1.9084	0.000850078
2	0	0	1	0	6.6359	-1.18224	-1.18257	-0.249641	3	-0.00449995	39	2.0124	0.000295218
2	0	0	1	0	6.7399	-1.13024	-1.13055	-0.0505924	3	-0.00451519	39	2.1164	5.71974e-05
2	1	0	1	0	6.8439	-1.07824	-1.0786	0.0816797	3	-0.00451302	39	0.07	-8.80994e-05
2	1	0	1	0	6.9479	-1.02625	-1.02658	0.28389	3	-0.00449589	39	0.174	-0.000291437
2	1	0	1	0	7.0519	-0.974262	-0.97459	0.683224	3	-0.00444194	39	0.278	-0.000665864
2	1	0	1	0	7.1559	-0.922271	-0.922606	0.539725	3	-0.00438111	39	0.382	-0.000497954
2	1	0	1	0	7.2599	-0.87028	-0.870603	0.647653	3	-0.00431986	39	0.486	-0.000563849
2	1	0	1	0	7.3639	-0.818289	-0.818621	0.601963	3	-0.00425315	39	0.59	-0.000492779
2	1	0	1	0	7.4679	-0.766297	-0.766616	0.547399	3	-0.00419365	39	0.694	-0.000419644
2	1	0	1	0	7.5719	-0.714306	-0.714617	0.52724	3	-0.00413819	39	0.798	-0.000376775
2	1	0	1	0	7.6759	-0.662315	-0.662647	0.519664	3	-0.00408397	39	0.902	-0.000344354
2	1	0	1	0	7.7799	-0.610324	-0.61066	0.527069	3	-0.00402957	39	1.006	-0.00032186
2	1	0	1	0	7.8839	-0.558233	-0.558566	0.551363	3	-0.00397342	39	1.11	-0.000307973
2	1	0	1	0	7.9879	-0.506241	-0.50656	0.565403	3	-0.00391521	39	1.214	-0.00028641
2	1	0	1	0	8.0919	-0.45425	-0.4546	0.537107	3	-0.00385765	39	1.318	-0.000244169
2	1	0	1	0	8.1959	-0.402259	-0.402601	0.477304	3	-0.00380476	39	1.422	-0.000192163
2	1	0	1	0	8.2999	-0.350268	-0.350602	0.425441	3	-0.0037578	39	1.526	-0.00014916
2	1	0	0	0	8.4006	-0.299926	-0.300255	0.386474	3	-0.00371691	39	1.6267	-0.000116041
2	1	0	1	0	8.5019	-0.350568	-0.350915	0.157827	3	-0.00369362	39	1.728	-5.53838e-05
2	1	0	1	0	8.6059	-0.402559	-0.402875	0.0845974	3	-0.0036816	39	1.832	-3.40822e-05
2	1	0	1	0	8.7099	-0.45455	-0.454877	0.0400982	3	-0.00367534	39	1.936	-1.82397e-05
2	1	0	1	0	8.8139	-0.506541	-0.506863	0.0118811	3	-0.00367259	39	2.04	-6.02208e-06
2	0	0	1	0	8.9179	-0.558533	-0.558846	-0.00384596	3	-0.00367212	39	0.024	2.1493e-06
2	0	0	1	0	9.0219	-0.610624	-0.610949	-0.0158544	3	-0.00367331	39	0.128	9.68622e-06
2	0	0	1	0	9.1259	-0.662615	-0.662936	-0.0292433	3	-0.00367575	39	0.232	1.93864e-05
2	0	0	1	0	9.2299	-0.714606	-0.714924	-0.0424669	3	-0.00367932	39	0.336	3.03606e-05
2	0	0	1	0	9.3339	-0.766597	-0.766938	-0.0556374	3	-0.00368419	39	0.44	4.26705e-05
2	0	0	1	0	9.4379	-0.818588	-0.818929	-0.0794067	3	-0.00369119	39	0.544	6.50285e-05
2	0	0	1	0	9.5419	-0.87058	-0.870878	-0.114741	3	-0.00370148	39	0.648	9.99256e-05
2	0	0	1	0	9.6459	-0.922571	-0.922886	-0.15541	3	-0.0037154	39	0.752	0.000143425
2	0	0	1	0	9.7499	-0.974562	-0.974867	-0.214994	3	-0.00373401	39	0.856	0.000209591
2	0	0	1	0	9.8539	-1.02655	-1.02683	-0.385046	3	-0.00376363	39	0.96	0.000395376
2	0	0	1	0	9.9579	-1.07854	-1.07885	-1.04588	3	-0.00382839	39	1.064	0.00112835
2	0	0	1	0	10.0619	-1.13054	-1.13084	-1.37268	3	-0.00398347	39	1.168	0.00155228
2	0	0	1	0	10.1659	-1.18258	-1.18288	-0.692438	3	-0.00408169	39	1.272	0.000819071
2	0	0	1	0	10.2699	-1.23462	-1.23493	-0.615882	3	-0.00414547	39	1.376	0.000760573
2	0	0	1	0	10.3739	-1.28661	-1.28692	-1.59365	3	-0.00424404	39	1.48	0.0020509
2	0	0	1	0	10.4779	-1.3386	-1.33893	-5.09762	3	-0.00456532	39	1.584	0.00682533
2	0	0	1	1	10.5763	-1.3123	-1.31263	-3.22462	3	-0.0050515	39	1.6824	0.00423273
2	0	0	1	1	10.6803	-1.26031	-1.26065	-0.884095	3	-0.00524207	39	1.7864	0.00111453
2	0	0	1	1	10.7843	-1.20832	-1.20863	-0.270208	3	-0.00529452	39	1.8904	0.000326582
2	0	0	1	1	10.8883	-1.15623	-1.15657	-0.0635642	3	-0.00531087	39	1.9944	7.35162e-05
2	1	0	1	1	10.9923	-1.10424	-1.10457	0.0640165	3	-0.00531085	39	0.054	-7.07104e-05
2	1	0	1	1	11.0963	-1.05225	-1.05257	0.162633	3	-0.0052993	39	0.158	-0.000171182
2	1	0	1	1	11.2003	-1.00026	-1.00057	0.521761	3	-0.00526683	39	0.262	-0.000522059
2	1	0	1	1	11.3043	-0.948266	-0.948622	0.541037	3	-0.00520292	39	0.366	-0.000513239
2	1	0	1	1	11.4083	-0.896275	-0.896599	0.562876	3	-0.00514874	39	0.47	-0.000504674
2	1	0	1	1	11.5123	-0.844284	-0.844634	0.627222	3	-0.0050851	39	0.574	-0.000529773
2	1	0	1	1	11.6163	-0.792293	-0.792629	0.545666	3	-0.00502394	39	0.678	-0.000432511
2	1	0	1	1	11.7203	-0.740302	-0.740665	0.50665	3	-0.00496949	39	0.782	-0.000375258
2	1	0	1	1	11.8243	-0.688311	-0.688658	0.494593	3	-0.00491776	39	0.886	-0.000340605
2	1	0	1	1	11.9283	-0.636319	-0.636665	0.4917	3	-0.00486667	39	0.99	-0.000313048
2	1	0	1	1	12.0323	-0.584228	-0.584574	0.499574	3	-0.00481513	39	1.094	-0.000292038
2	1	0	1	1	12.1363	-0.532237	-0.532585	0.514848	3	-0.00476223	39	1.198	-0.0002742
2	1	0	1	1	12.2403	-0.480246	-0.480582	0.511622	3	-0.00470863	39	1.302	-0.000245876
2	1	0	1	1	12.3443	-0.428255	-0.428609	0.471955	3	-0.00465736	39	1.406	-0.000202284
2	1	0	1	1	12.4483	-0.376264	-0.376613	0.42314	3	-0.00461072	39	1.51	-0.00015936
2	1	0	1	1	12.5523	-0.324272	-0.324593	0.385879	3	-0.0045686	39	1.614	-0.000125254
2	1	0	1	1	12.6563	-0.272281	-0.272592	0.36022	3	-0.00452998	39	1.718	-9.81929e-05
2	1	0	0	1	12.7572	-0.22184	-0.222211	0.338528	3	-0.00449494	39	1.8189	-7.52246e-05