File: Fig 3/Fig 3_RRDE-np-Fe2O3_25mvs_disk.mpt
mode	ox/red	error	control changes	Ns changes	counter inc.	Ns	time/s	control/V	Ewe/V	<I>/mA	dQ/C	(Q-Qo)/C	I Range	Q charge/discharge/mA.h	half cycle	Energy charge/W.h	Energy discharge/W.h	Capacitance charge/µF	Capacitance discharge/µF	step time/s	Q discharge/mA.h	Q charge/mA.h	Capacity/mA.h	Efficiency/%	cycle number	P/W
2	0	1	1	0	0	0	0.1	-0.300004	-0.30011	-0.132079	-1.32079e-05	-1.32079e-05	41	-3.66885e-06	0	0.000000000000000E+000	1.10106e-09	0.000000000000000E+000	0.000000000000000E+000	0.1	3.66885e-06	0.000000000000000E+000	3.66885e-06	0.0000000E+000	0.000000000000000E+000	3.96381e-05
2	0	0	1	0	0	0	2.6	-0.300004	-0.300152	-0.0100787	-5.16181e-05	-5.16181e-05	41	-1.43384e-05	0	0.000000000000000E+000	4.30352e-09	0.000000000000000E+000	1.22751e+06	2.6	1.43384e-05	0.000000000000000E+000	1.43384e-05	0.0000000E+000	0.000000000000000E+000	3.02513e-06
2	0	0	1	0	0	0	5.1	-0.300004	-0.30016	-0.00711045	-7.24326e-05	-7.24326e-05	41	-2.01202e-05	0	0.000000000000000E+000	6.03881e-09	0.000000000000000E+000	1.4571e+06	5.1	2.01202e-05	0.000000000000000E+000	2.01202e-05	0.0000000E+000	0.000000000000000E+000	2.13427e-06
2	0	0	1	0	0	0	7.6	-0.300004	-0.300133	-0.00558615	-8.80329e-05	-8.80329e-05	41	-2.44536e-05	0	0.000000000000000E+000	7.33943e-09	0.000000000000000E+000	3.83623e+06	7.6	2.44536e-05	0.000000000000000E+000	2.44536e-05	0.0000000E+000	0.000000000000000E+000	1.67659e-06
2	0	0	1	0	0	0	10.1	-0.300004	-0.300129	-0.00501111	-0.000101202	-0.000101202	41	-2.81116e-05	0	0.000000000000000E+000	8.43732e-09	0.000000000000000E+000	5.29762e+06	10.1	2.81116e-05	0.000000000000000E+000	2.81116e-05	0.0000000E+000	0.000000000000000E+000	1.50398e-06
2	0	0	1	0	0	0	12.6	-0.300004	-0.300133	-0.0046337	-0.000113114	-0.000113114	41	-3.14206e-05	0	0.000000000000000E+000	9.43042e-09	0.000000000000000E+000	4.9292e+06	12.6	3.14206e-05	0.000000000000000E+000	3.14206e-05	0.0000000E+000	0.000000000000000E+000	1.39073e-06
2	0	0	1	0	0	0	15.1	-0.300004	-0.300121	-0.00431546	-0.000124238	-0.000124238	41	-3.45105e-05	0	0.000000000000000E+000	1.03578e-08	0.000000000000000E+000	1.08279e+07	15.1	3.45105e-05	0.000000000000000E+000	3.45105e-05	0.0000000E+000	0.000000000000000E+000	1.29516e-06
2	0	0	1	0	0	0	17.6	-0.300004	-0.30016	-0.0041824	-0.000134855	-0.000134855	41	-3.74598e-05	0	0.000000000000000E+000	1.1243e-08	0.000000000000000E+000	2.71283e+06	17.6	3.74598e-05	0.000000000000000E+000	3.74598e-05	0.0000000E+000	0.000000000000000E+000	1.25539e-06
2	0	0	1	0	0	0	20.1	-0.300004	-0.30011	-0.00408689	-0.000145156	-0.000145156	41	-4.0321e-05	0	0.000000000000000E+000	1.21017e-08	0.000000000000000E+000	0.000000000000000E+000	20.1	4.0321e-05	0.000000000000000E+000	4.0321e-05	0.0000000E+000	0.000000000000000E+000	1.22652e-06
2	0	0	1	0	0	0	22.6	-0.300004	-0.300083	-0.00396907	-0.000155201	-0.000155201	41	-4.31113e-05	0	0.000000000000000E+000	1.29391e-08	0.000000000000000E+000	5.79919e+06	22.6	4.31113e-05	0.000000000000000E+000	4.31113e-05	0.0000000E+000	0.000000000000000E+000	1.19105e-06
2	0	0	1	0	0	0	25.1	-0.300004	-0.300095	-0.00350697	-0.000164777	-0.000164777	41	-4.57714e-05	0	0.000000000000000E+000	1.37375e-08	0.000000000000000E+000	1.07778e+07	25.1	4.57714e-05	0.000000000000000E+000	4.57714e-05	0.0000000E+000	0.000000000000000E+000	1.05242e-06
2	1	0	1	0	0	0	27.6	-0.300004	-0.300121	0.00283118	-0.000168539	-0.000168539	41	2.41361e-07	2	7.2437e-11	0.000000000000000E+000	45484.3	0.000000000000000E+000	0.5	0.000000000000000E+000	2.41361e-07	2.41361e-07	0.0000000E+000	1	-8.49699e-07
2	1	0	1	0	0	0	30.1	-0.300004	-0.300133	0.0218422	-0.000134602	-0.000134602	41	9.66828e-06	2	2.90157e-09	0.000000000000000E+000	1.13829e+06	0.000000000000000E+000	3	0.000000000000000E+000	9.66828e-06	9.66828e-06	0.0000000E+000	1	-6.55556e-06
2	1	0	1	0	0	0	32.6	-0.300004	-0.300087	0.0249525	-7.47935e-05	-7.47935e-05	41	2.62818e-05	2	7.88745e-09	0.000000000000000E+000	6.17653e+06	0.000000000000000E+000	5.5	0.000000000000000E+000	2.62818e-05	2.62818e-05	0.0000000E+000	1	-7.48792e-06
2	1	0	1	0	0	0	35.1	-0.300004	-0.300118	0.0201751	-1.48899e-05	-1.48899e-05	41	4.29217e-05	2	1.28812e-08	0.000000000000000E+000	1.01068e+07	0.000000000000000E+000	8	0.000000000000000E+000	4.29217e-05	4.29217e-05	0.0000000E+000	1	-6.0549e-06
2	0	0	1	0	0	0	37.6	-0.300004	-0.300102	-0.0012151	-3.73514e-06	-3.73514e-06	41	-1.28716e-07	3	1.38498e-08	3.86306e-11	2.41429e+06	17333.8	0.6	1.28716e-07	0.000000000000000E+000	1.28716e-07	0.0000000E+000	1	3.64653e-07
2	0	0	1	0	0	0	40.1	-0.300004	-0.300114	-0.00254658	-9.15986e-06	-9.15986e-06	41	-1.63558e-06	3	1.38498e-08	4.90876e-10	2.41429e+06	385883	3.1	1.63558e-06	0.000000000000000E+000	1.63558e-06	0.0000000E+000	1	7.64265e-07
2	0	0	1	0	0	0	42.6	-0.300004	-0.300121	-0.00287159	-1.49945e-05	-1.49945e-05	41	-3.25632e-06	3	1.38498e-08	9.77308e-10	2.41429e+06	1.53653e+06	5.6	3.25632e-06	0.000000000000000E+000	3.25632e-06	0.0000000E+000	1	8.61827e-07
2	0	0	1	0	0	0	45.1	-0.300004	-0.300106	-0.00328993	-2.29631e-05	-2.29631e-05	41	-5.46983e-06	3	1.38498e-08	1.64162e-09	2.41429e+06	859211	8.1	5.46983e-06	0.000000000000000E+000	5.46983e-06	0.0000000E+000	1	9.8733e-07
2	0	0	1	0	0	0	47.6	-0.300004	-0.300099	-0.00343215	-3.13515e-05	-3.13515e-05	41	-7.79993e-06	3	1.38498e-08	2.34093e-09	2.41429e+06	918324	10.6	7.79993e-06	0.000000000000000E+000	7.79993e-06	0.0000000E+000	1	1.02998e-06
2	0	0	1	0	0	0	50.1	-0.300004	-0.300144	-0.00323598	-3.99516e-05	-3.99516e-05	41	-1.01888e-05	3	1.38498e-08	3.05787e-09	2.41429e+06	2.39449e+06	13.1	1.01888e-05	0.000000000000000E+000	1.01888e-05	0.0000000E+000	1	9.71261e-07
2	0	0	1	0	0	0	52.6	-0.300004	-0.300144	-0.00333201	-4.81395e-05	-4.81395e-05	41	-1.24633e-05	3	1.38498e-08	3.7405e-09	2.41429e+06	2.92901e+06	15.6	1.24633e-05	0.000000000000000E+000	1.24633e-05	0.0000000E+000	1	1.00008e-06
2	0	0	1	0	0	0	55.1	-0.300004	-0.300125	-0.00255944	-5.59616e-05	-5.59616e-05	41	-1.46361e-05	3	1.38498e-08	4.39261e-09	2.41429e+06	1.38123e+07	18.1	1.46361e-05	0.000000000000000E+000	1.46361e-05	0.0000000E+000	1	7.68153e-07
2	1	0	1	0	0	0	57.6	-0.300004	-0.300152	0.000493456	-5.8069e-05	-5.8069e-05	41	3.95717e-08	4	1.18778e-11	0.000000000000000E+000	4142.21	0.000000000000000E+000	0.4	0.000000000000000E+000	3.95717e-08	3.95717e-08	0.0000000E+000	2	-1.48112e-07
2	1	0	1	0	0	0	60.1	-0.300004	-0.300102	0.00698172	-4.9711e-05	-4.9711e-05	41	2.36124e-06	4	7.08681e-10	0.000000000000000E+000	556001	0.000000000000000E+000	2.9	0.000000000000000E+000	2.36124e-06	2.36124e-06	0.0000000E+000	2	-2.09523e-06
2	1	0	1	0	0	0	62.6	-0.300004	-0.300171	0.00412746	-3.16137e-05	-3.16137e-05	41	7.38827e-06	4	2.21751e-09	0.000000000000000E+000	496923	0.000000000000000E+000	5.4	0.000000000000000E+000	7.38827e-06	7.38827e-06	0.0000000E+000	2	-1.23895e-06
2	0	0	1	0	0	0	65.1	-0.300004	-0.300144	-0.0019937	-3.07895e-05	-3.07895e-05	41	-4.01223e-07	5	2.40663e-09	1.20413e-10	2.51583e+06	188584	1.1	4.01223e-07	0.000000000000000E+000	4.01223e-07	0.0000000E+000	2	5.98398e-07
2	0	0	1	0	0	0	67.6	-0.300004	-0.300125	-0.0030448	-3.75857e-05	-3.75857e-05	41	-2.28905e-06	5	2.40663e-09	6.86999e-10	2.51583e+06	718203	3.6	2.28905e-06	0.000000000000000E+000	2.28905e-06	0.0000000E+000	2	9.13822e-07
2	0	0	1	0	0	0	70.1	-0.300004	-0.300099	-0.00316839	-4.53862e-05	-4.53862e-05	41	-4.45586e-06	5	2.40663e-09	1.3373e-09	2.51583e+06	419852	6.1	4.45586e-06	0.000000000000000E+000	4.45586e-06	0.0000000E+000	2	9.50829e-07
2	0	0	1	0	0	0	72.6	-0.300004	-0.300121	-0.00333187	-5.34859e-05	-5.34859e-05	41	-6.70578e-06	5	2.40663e-09	2.01259e-09	2.51583e+06	1.57901e+06	8.6	6.70578e-06	0.000000000000000E+000	6.70578e-06	0.0000000E+000	2	9.99967e-07
2	0	0	1	0	0	0	75.1	-0.300004	-0.300121	-0.00343822	-6.24817e-05	-6.24817e-05	41	-9.2046e-06	5	2.40663e-09	2.76252e-09	2.51583e+06	2.16741e+06	11.1	9.2046e-06	0.000000000000000E+000	9.2046e-06	0.0000000E+000	2	1.03188e-06
2	0	0	1	0	0	0	77.6	-0.300004	-0.300076	-0.0031489	-7.07606e-05	-7.07606e-05	41	-1.15043e-05	5	2.40663e-09	3.45269e-09	2.51583e+06	677228	13.6	1.15043e-05	0.000000000000000E+000	1.15043e-05	0.0000000E+000	2	9.44908e-07
2	0	0	1	0	0	0	80.1	-0.300004	-0.300148	-0.00305801	-7.85479e-05	-7.85479e-05	41	-1.36675e-05	5	2.40663e-09	4.10189e-09	2.51583e+06	4.28824e+06	16.1	1.36675e-05	0.000000000000000E+000	1.36675e-05	0.0000000E+000	2	9.17855e-07
2	0	0	1	0	0	0	82.6	-0.300004	-0.300125	-0.00304463	-8.61884e-05	-8.61884e-05	41	-1.57898e-05	5	2.40663e-09	4.73884e-09	2.51583e+06	4.95414e+06	18.6	1.57898e-05	0.000000000000000E+000	1.57898e-05	0.0000000E+000	2	9.1377e-07
2	0	0	1	0	0	0	85.1	-0.300004	-0.300087	-0.00302684	-9.37717e-05	-9.37717e-05	41	-1.78963e-05	5	2.40663e-09	5.371e-09	2.51583e+06	1.29604e+06	21.1	1.78963e-05	0.000000000000000E+000	1.78963e-05	0.0000000E+000	2	9.08315e-07
2	0	0	1	0	0	0	87.6	-0.300004	-0.300083	-0.00300086	-0.000101277	-0.000101277	41	-1.99812e-05	5	2.40663e-09	5.99669e-09	2.51583e+06	1.3439e+06	23.6	1.99812e-05	0.000000000000000E+000	1.99812e-05	0.0000000E+000	2	9.00508e-07
2	0	0	1	0	0	0	90.1	-0.300004	-0.300087	-0.00293698	-0.000108696	-0.000108696	41	-2.20419e-05	5	2.40663e-09	6.61512e-09	2.51583e+06	1.59722e+06	26.1	2.20419e-05	0.000000000000000E+000	2.20419e-05	0.0000000E+000	2	8.81349e-07
2	0	0	1	0	0	0	92.6	-0.300004	-0.300076	-0.00292659	-0.000116046	-0.000116046	41	-2.40837e-05	5	2.40663e-09	7.22792e-09	2.51583e+06	1.41705e+06	28.6	2.40837e-05	0.000000000000000E+000	2.40837e-05	0.0000000E+000	2	8.78199e-07
2	0	0	1	0	0	0	95.1	-0.300004	-0.300091	-0.00288511	-0.000123343	-0.000123343	41	-2.61106e-05	5	2.40663e-09	7.83623e-09	2.51583e+06	2.04942e+06	31.1	2.61106e-05	0.000000000000000E+000	2.61106e-05	0.0000000E+000	2	8.65794e-07
2	0	0	1	0	0	0	97.6	-0.300004	-0.300148	-0.00289031	-0.000130589	-0.000130589	41	-2.81232e-05	5	2.40663e-09	8.44026e-09	2.51583e+06	8.82381e+06	33.6	2.81232e-05	0.000000000000000E+000	2.81232e-05	0.0000000E+000	2	8.67522e-07
2	0	0	1	0	0	0	100.1	-0.300004	-0.300152	-0.00287665	-0.000137824	-0.000137824	41	-3.01329e-05	5	2.40663e-09	9.04348e-09	2.51583e+06	7.09539e+06	36.1	3.01329e-05	0.000000000000000E+000	3.01329e-05	0.0000000E+000	2	8.63434e-07
2	0	0	1	0	0	0	101.915	-0.300004	-0.300152	-0.00285691	-0.000143009	-0.000143009	41	-3.15734e-05	5	2.40663e-09	9.47581e-09	2.51583e+06	7.43458e+06	37.9152	3.15734e-05	0.000000000000000E+000	3.15734e-05	393.76	2	8.57509e-07