File: Fig 3/Fig 3_RRDE-np-Fe3O4_5mvs_ring_1.mpt
mode	ox/red	error	control changes	Ns changes	counter inc.	Ns	time/s	control/V	Ewe/V	<I>/mA	dQ/C	(Q-Qo)/C	I Range	Q charge/discharge/mA.h	half cycle	Energy charge/W.h	Energy discharge/W.h	Capacitance charge/µF	Capacitance discharge/µF	step time/s	Q discharge/mA.h	Q charge/mA.h	Capacity/mA.h	Efficiency/%	cycle number	P/W
2	0	1	1	0	0	0	0.1	-0.300043	-0.299946	-0.106232	-1.06232e-05	-1.06232e-05	52	-2.95089e-06	0	0.000000000000000E+000	8.85108e-10	0.000000000000000E+000	0.000000000000000E+000	0.1	2.95089e-06	0.000000000000000E+000	2.95089e-06	0.0000000E+000	0.000000000000000E+000	3.18639e-05
2	0	0	1	0	0	0	18.4	-0.300043	-0.299972	-0.000819647	-5.00158e-05	-5.00158e-05	52	-1.38933e-05	0	0.000000000000000E+000	4.16737e-09	0.000000000000000E+000	1.86888e+06	18.4	1.38933e-05	0.000000000000000E+000	1.38933e-05	0.0000000E+000	0.000000000000000E+000	2.45871e-07
2	0	0	1	0	0	0	36.7	-0.300043	-0.299984	-0.000630527	-6.30002e-05	-6.30002e-05	52	-1.75e-05	0	0.000000000000000E+000	5.24921e-09	0.000000000000000E+000	1.64893e+06	36.7	1.75e-05	0.000000000000000E+000	1.75e-05	0.0000000E+000	0.000000000000000E+000	1.89148e-07
2	0	0	1	0	0	0	55	-0.300043	-0.299995	-0.000846637	-7.81426e-05	-7.81426e-05	52	-2.17063e-05	0	0.000000000000000E+000	6.51079e-09	0.000000000000000E+000	1.57385e+06	55	2.17063e-05	0.000000000000000E+000	2.17063e-05	0.0000000E+000	0.000000000000000E+000	2.53987e-07
2	0	0	1	0	0	0	73.3	-0.300043	-0.299892	-0.000553705	-9.10274e-05	-9.10274e-05	52	-2.52854e-05	0	0.000000000000000E+000	7.58426e-09	0.000000000000000E+000	1.70255e+06	73.3	2.52854e-05	0.000000000000000E+000	2.52854e-05	0.0000000E+000	0.000000000000000E+000	1.66052e-07
2	0	0	1	0	0	0	91.6	-0.300043	-0.299908	-0.000792002	-0.000103463	-0.000103463	52	-2.87398e-05	0	0.000000000000000E+000	8.62029e-09	0.000000000000000E+000	2.71011e+06	91.6	2.87398e-05	0.000000000000000E+000	2.87398e-05	0.0000000E+000	0.000000000000000E+000	2.37527e-07
2	0	0	1	0	0	0	109.9	-0.300043	-0.299934	-0.000732194	-0.000117599	-0.000117599	52	-3.26665e-05	0	0.000000000000000E+000	9.79801e-09	0.000000000000000E+000	1.0276e+07	109.9	3.26665e-05	0.000000000000000E+000	3.26665e-05	0.0000000E+000	0.000000000000000E+000	2.1961e-07
2	0	0	1	0	0	0	128.2	-0.300043	-0.299953	-0.000587533	-0.000130133	-0.000130133	52	-3.61479e-05	0	0.000000000000000E+000	1.08422e-08	0.000000000000000E+000	1.69904e+07	128.2	3.61479e-05	0.000000000000000E+000	3.61479e-05	0.0000000E+000	0.000000000000000E+000	1.76233e-07
2	1	0	1	0	0	0	146.5	-0.300043	-0.299885	0.00175845	-0.00011096	-0.00011096	52	5.86745e-06	2	1.75978e-09	0.000000000000000E+000	614713	0.000000000000000E+000	13	0.000000000000000E+000	5.86745e-06	5.86745e-06	0.0000000E+000	1	-5.27332e-07
2	0	0	1	0	0	0	164.8	-0.300043	-0.299923	-5.55456e-05	-0.000103825	-0.000103825	52	-4.29479e-08	5	6.06259e-15	1.28815e-11	0.000000000000000E+000	3373.17	3.9	4.29479e-08	0.000000000000000E+000	4.29479e-08	0.0000000E+000	2	1.66594e-08
2	0	0	1	0	0	0	183.1	-0.300043	-0.299843	-0.000658853	-0.000108636	-0.000108636	52	-1.25094e-06	7	6.63574e-12	3.75177e-10	1389.8	39289.8	8.2	1.25094e-06	0.000000000000000E+000	1.25094e-06	0.0000000E+000	3	1.97552e-07
2	0	0	1	0	0	0	201.4	-0.300043	-0.299988	-0.000642104	-0.000120683	-0.000120683	52	-4.59712e-06	7	6.63574e-12	1.37878e-09	1389.8	541770	26.5	4.59712e-06	0.000000000000000E+000	4.59712e-06	0.0000000E+000	3	1.92623e-07
2	0	0	1	0	0	0	219.7	-0.300043	-0.299923	-0.000658268	-0.000132119	-0.000132119	52	-7.7738e-06	7	6.63574e-12	2.33152e-09	1389.8	813729	44.8	7.7738e-06	0.000000000000000E+000	7.7738e-06	0.0000000E+000	3	1.9743e-07
2	0	0	1	0	0	0	238	-0.300043	-0.299938	-0.000695755	-0.000144437	-0.000144437	52	-1.11954e-05	7	6.63574e-12	3.35775e-09	1389.8	2.10977e+06	63.1	1.11954e-05	0.000000000000000E+000	1.11954e-05	0.0000000E+000	3	2.08684e-07
2	0	0	1	0	0	0	256.3	-0.300043	-0.299961	-0.000712847	-0.000157393	-0.000157393	52	-1.47945e-05	7	6.63574e-12	4.43718e-09	1389.8	1.39618e+07	81.4	1.47945e-05	0.000000000000000E+000	1.47945e-05	0.0000000E+000	3	2.13826e-07
2	1	0	1	0	0	0	274.6	-0.300043	-0.299888	0.0015151	-0.000161123	-0.000161123	52	1.1098e-06	8	3.32833e-10	0.000000000000000E+000	523671	0.000000000000000E+000	5.3	0.000000000000000E+000	1.1098e-06	1.1098e-06	0.0000000E+000	4	-4.54362e-07
2	1	0	1	0	0	0	292.9	-0.300043	-0.299854	0.00505481	-9.07674e-05	-9.07674e-05	52	2.06531e-05	8	6.19411e-09	0.000000000000000E+000	1.76937e+06	0.000000000000000E+000	23.6	0.000000000000000E+000	2.06531e-05	2.06531e-05	0.0000000E+000	4	-1.5157e-06
2	0	0	1	0	0	0	311.2	-0.300043	-0.299957	-0.000575522	-4.98455e-05	-4.98455e-05	52	-6.56522e-07	9	9.80024e-09	1.96903e-10	1.02525e+07	36395.2	5.4	6.56522e-07	0.000000000000000E+000	6.56522e-07	0.0000000E+000	4	1.72632e-07
2	0	0	1	0	0	0	329.5	-0.300043	-0.299873	-0.000687464	-6.15116e-05	-6.15116e-05	52	-3.8971e-06	9	9.80024e-09	1.16879e-09	1.02525e+07	734405	23.7	3.8971e-06	0.000000000000000E+000	3.8971e-06	0.0000000E+000	4	2.06152e-07
2	0	0	1	0	0	0	347.8	-0.300043	-0.2999	-0.000720113	-7.45235e-05	-7.45235e-05	52	-7.51151e-06	9	9.80024e-09	2.25283e-09	1.02525e+07	3.54438e+06	42	7.51151e-06	0.000000000000000E+000	7.51151e-06	0.0000000E+000	4	2.15962e-07
2	0	0	1	0	0	0	366.1	-0.300043	-0.299904	-0.000732736	-8.78242e-05	-8.78242e-05	52	-1.12061e-05	9	9.80024e-09	3.36094e-09	1.02525e+07	3.52515e+06	60.3	1.12061e-05	0.000000000000000E+000	1.12061e-05	0.0000000E+000	4	2.1975e-07
2	0	0	1	0	0	0	384.4	-0.300043	-0.299946	-0.000730415	-0.000101203	-0.000101203	52	-1.49226e-05	9	9.80024e-09	4.47558e-09	1.02525e+07	1.00423e+06	78.6	1.49226e-05	0.000000000000000E+000	1.49226e-05	0.0000000E+000	4	2.19085e-07
2	0	0	1	0	0	0	402.7	-0.300043	-0.299942	-0.000728877	-0.00011461	-0.00011461	52	-1.86467e-05	9	9.80024e-09	5.59249e-09	1.02525e+07	1.35201e+06	96.9	1.86467e-05	0.000000000000000E+000	1.86467e-05	0.0000000E+000	4	2.18621e-07
2	0	0	1	0	0	0	421	-0.300043	-0.2999	-0.000726179	-0.000127971	-0.000127971	52	-2.2358e-05	9	9.80024e-09	6.70552e-09	1.02525e+07	1.05498e+07	115.2	2.2358e-05	0.000000000000000E+000	2.2358e-05	0.0000000E+000	4	2.17781e-07
2	0	0	1	0	0	0	439.3	-0.300043	-0.299919	-0.000719916	-0.000141261	-0.000141261	52	-2.60496e-05	9	9.80024e-09	7.81269e-09	1.02525e+07	3.50802e+06	133.5	2.60496e-05	0.000000000000000E+000	2.60496e-05	0.0000000E+000	4	2.15916e-07
2	0	0	1	0	0	0	457.6	-0.300043	-0.299862	-0.000717666	-0.000154466	-0.000154466	52	-2.97178e-05	9	9.80024e-09	8.91276e-09	1.02525e+07	3.49881e+06	151.8	2.97178e-05	0.000000000000000E+000	2.97178e-05	0.0000000E+000	4	2.15201e-07
2	0	0	1	0	0	0	475.9	-0.300043	-0.299896	-0.000713207	-0.00016759	-0.00016759	52	-3.33634e-05	9	9.80024e-09	1.00061e-08	1.02525e+07	3.14856e+07	170.1	3.33634e-05	0.000000000000000E+000	3.33634e-05	0.0000000E+000	4	2.13888e-07
2	0	0	1	0	0	0	494.2	-0.300043	-0.299911	-0.000709755	-0.000180626	-0.000180626	52	-3.69846e-05	9	9.80024e-09	1.10921e-08	1.02525e+07	6.96971e+06	188.4	3.69846e-05	0.000000000000000E+000	3.69846e-05	0.0000000E+000	4	2.12863e-07
2	0	0	1	0	0	0	512.5	-0.300043	-0.299904	-0.000696461	-0.000193547	-0.000193547	52	-4.05735e-05	9	9.80024e-09	1.21685e-08	1.02525e+07	1.27633e+07	206.7	4.05735e-05	0.000000000000000E+000	4.05735e-05	0.0000000E+000	4	2.08871e-07
2	0	0	1	0	0	0	530.8	-0.300043	-0.299969	-0.000692129	-0.000206264	-0.000206264	52	-4.41062e-05	9	9.80024e-09	1.32279e-08	1.02525e+07	2.07876e+06	225	4.41062e-05	0.000000000000000E+000	4.41062e-05	0.0000000E+000	4	2.07617e-07
2	0	0	1	0	0	0	549.1	-0.300043	-0.29985	-0.000673238	-0.000218785	-0.000218785	52	-4.75842e-05	9	9.80024e-09	1.4271e-08	1.02525e+07	4.07659e+06	243.3	4.75842e-05	0.000000000000000E+000	4.75842e-05	0.0000000E+000	4	2.01871e-07
2	0	0	1	0	0	0	567.4	-0.300043	-0.299869	-0.000659776	-0.000230976	-0.000230976	52	-5.09705e-05	9	9.80024e-09	1.52866e-08	1.02525e+07	7.99614e+06	261.6	5.09705e-05	0.000000000000000E+000	5.09705e-05	0.0000000E+000	4	1.97847e-07
2	0	0	1	0	0	0	585.7	-0.300043	-0.299911	-0.000630621	-0.000242767	-0.000242767	52	-5.42458e-05	9	9.80024e-09	1.62689e-08	1.02525e+07	1.02226e+07	279.9	5.42458e-05	0.000000000000000E+000	5.42458e-05	0.0000000E+000	4	1.8913e-07
2	0	0	1	0	0	0	604	-0.300043	-0.29993	-0.000656942	-0.000254251	-0.000254251	52	-5.74359e-05	9	9.80024e-09	1.72256e-08	1.02525e+07	5.4161e+06	298.2	5.74359e-05	0.000000000000000E+000	5.74359e-05	0.0000000E+000	4	1.97037e-07
2	0	0	1	0	0	0	622.3	-0.300043	-0.299904	-0.00065444	-0.000266295	-0.000266295	52	-6.07813e-05	9	9.80024e-09	1.82289e-08	1.02525e+07	1.91201e+07	316.5	6.07813e-05	0.000000000000000E+000	6.07813e-05	0.0000000E+000	4	1.96269e-07
2	0	0	1	0	0	0	640.6	-0.300043	-0.299915	-0.00064068	-0.000277996	-0.000277996	52	-6.40318e-05	9	9.80024e-09	1.92038e-08	1.02525e+07	1.00582e+07	334.8	6.40318e-05	0.000000000000000E+000	6.40318e-05	0.0000000E+000	4	1.9215e-07
2	0	0	1	0	0	0	658.9	-0.300043	-0.299911	-0.000660875	-0.000289935	-0.000289935	52	-6.73482e-05	9	9.80024e-09	2.01985e-08	1.02525e+07	1.26917e+07	353.1	6.73482e-05	0.000000000000000E+000	6.73482e-05	0.0000000E+000	4	1.98204e-07
2	0	0	1	0	0	0	677.2	-0.300043	-0.299919	-0.000629906	-0.00030195	-0.00030195	52	-7.06855e-05	9	9.80024e-09	2.11994e-08	1.02525e+07	9.51898e+06	371.4	7.06855e-05	0.000000000000000E+000	7.06855e-05	0.0000000E+000	4	1.88921e-07
2	0	0	1	0	0	0	695.5	-0.300043	-0.299946	-0.000512844	-0.000312639	-0.000312639	52	-7.36546e-05	9	9.80024e-09	2.20899e-08	1.02525e+07	4.95941e+06	389.7	7.36546e-05	0.000000000000000E+000	7.36546e-05	0.0000000E+000	4	1.53825e-07
2	0	0	1	0	0	0	713.8	-0.300043	-0.299831	-0.000397895	-0.000320256	-0.000320256	52	-7.57706e-05	9	9.80024e-09	2.27244e-08	1.02525e+07	4.4626e+06	408	7.57706e-05	0.000000000000000E+000	7.57706e-05	0.0000000E+000	4	1.19301e-07
2	0	0	1	0	0	0	732.1	-0.300043	-0.299873	-0.000665125	-0.000331498	-0.000331498	52	-7.88932e-05	9	9.80024e-09	2.36609e-08	1.02525e+07	1.48674e+07	426.3	7.88932e-05	0.000000000000000E+000	7.88932e-05	0.0000000E+000	4	1.99453e-07
2	0	0	1	0	0	0	750.4	-0.300043	-0.299885	-0.000674497	-0.000343787	-0.000343787	52	-8.23068e-05	9	9.80024e-09	2.46847e-08	1.02525e+07	3.88372e+07	444.6	8.23068e-05	0.000000000000000E+000	8.23068e-05	0.0000000E+000	4	2.02271e-07
2	0	0	1	0	0	0	768.7	-0.300043	-0.299911	-0.00067795	-0.00035615	-0.00035615	52	-8.57412e-05	9	9.80024e-09	2.57147e-08	1.02525e+07	1.61579e+07	462.9	8.57412e-05	0.000000000000000E+000	8.57412e-05	0.0000000E+000	4	2.03325e-07
2	0	0	1	0	0	0	782.718	-0.300043	-0.299907	-0.000675581	-0.000365676	-0.000365676	52	-8.83872e-05	9	9.80024e-09	2.65083e-08	1.02525e+07	2.08532e+07	476.918	8.83872e-05	0.000000000000000E+000	8.83872e-05	270.489	4	2.02612e-07