File: Fig 3/Fig 3_RRDE-np-Fe2O3_25mvs_ring.mpt
mode	ox/red	error	control changes	counter inc.	time/s	control/V	Ewe/V	<I>/mA	cycle number	(Q-Qo)/C	I Range	step time/s	P/W
2	0	0	0	0	0.000000000000000E+000	-0.300027	-0.30012	-0.1039	1	0.0000000E+000	39	0.000000000000000E+000	3.11825e-05
2	1	0	0	0	0.862	-0.321573	-0.321576	0.0035751	1	1.20896e-06	39	0.76	-1.14967e-06
2	1	0	1	0	1.7418	-0.34357	-0.343563	0.00239337	1	2.73703e-06	39	1.6398	-8.22271e-07
2	0	0	0	0	2.6216	-0.365566	-0.365563	0.00166048	1	3.548e-06	39	2.5196	-6.0701e-07
2	0	0	1	0	3.5015	-0.387563	-0.387547	0.00127595	1	3.8157e-06	39	0.0399	-4.94489e-07
2	1	0	1	0	4.3814	-0.409558	-0.409587	0.00095252	1	3.6713e-06	39	0.36	-3.9014e-07
2	1	0	0	0	5.2612	-0.431555	-0.431551	0.000541872	1	3.21191e-06	39	1.2398	-2.33845e-07
2	0	0	1	0	6.141	-0.453551	-0.453569	0.000179171	1	2.45653e-06	39	2.1196	-8.12666e-08
2	0	0	1	0	7.0209	-0.475547	-0.475535	-4.91454e-06	1	1.47069e-06	39	2.9995	2.33704e-09
2	1	0	0	0	7.9008	-0.497544	-0.497514	-0.000255383	1	2.82639e-07	39	3.8794	1.27057e-07
2	1	0	1	0	8.7806	-0.51954	-0.519532	-0.000313825	1	-1.11536e-06	39	4.7592	1.63042e-07
2	1	0	0	0	9.6604	-0.541536	-0.541534	-0.000511459	1	-2.74308e-06	39	5.639	2.76973e-07
2	0	0	1	0	10.5403	-0.563532	-0.563547	-0.000917695	1	-4.55191e-06	39	6.5189	5.17164e-07
2	0	0	1	0	11.4202	-0.585529	-0.585527	-0.00123631	1	-6.59561e-06	39	7.3988	7.23892e-07
2	1	0	0	0	12.3	-0.607525	-0.607522	-0.00140069	1	-8.88214e-06	39	8.2786	8.50948e-07
2	1	0	1	0	13.1798	-0.629521	-0.629568	-0.00159256	1	-1.14686e-05	39	9.1584	1.00262e-06
2	0	0	1	0	14.0597	-0.651517	-0.651516	-0.001941	1	-1.4289e-05	39	10.0383	1.26459e-06
2	0	0	0	0	14.9396	-0.673514	-0.673504	-0.00219955	1	-1.74107e-05	39	10.9182	1.48141e-06
2	0	0	1	0	15.8194	-0.69551	-0.695498	-0.0026044	1	-2.0793e-05	39	11.798	1.81135e-06
2	1	0	0	0	16.6992	-0.717506	-0.717548	-0.00287109	1	-2.45601e-05	39	12.6778	2.06015e-06
2	1	0	1	0	17.5791	-0.739502	-0.739484	-0.00321764	1	-2.87152e-05	39	13.5577	2.37939e-06
2	0	0	1	0	18.459	-0.761499	-0.761498	-0.00383646	1	-3.32598e-05	39	14.4376	2.92145e-06
2	0	0	0	0	19.3388	-0.783495	-0.783503	-0.00454285	1	-3.81865e-05	39	15.3174	3.55934e-06
2	0	0	1	0	20.2186	-0.805491	-0.80547	-0.00474585	1	-4.34951e-05	39	16.1972	3.82264e-06
2	0	0	1	0	21.0985	-0.827485	-0.82748	-0.00513328	1	-4.92337e-05	39	17.0771	4.24769e-06
2	0	0	0	0	21.9784	-0.849484	-0.849487	-0.00577051	1	-5.54839e-05	39	17.957	4.90197e-06
2	0	0	1	0	22.8582	-0.87148	-0.871497	-0.00677959	1	-6.23834e-05	39	18.8368	5.90839e-06
2	0	0	0	0	23.738	-0.893476	-0.893477	-0.0079801	1	-7.02464e-05	39	19.7166	7.13003e-06
2	0	0	0	0	24.618	-0.915472	-0.915491	-0.0100776	1	-7.95412e-05	39	20.5966	9.22595e-06
2	0	0	1	0	25.4978	-0.937469	-0.937471	-0.0147801	1	-9.15747e-05	39	21.4764	1.38559e-05
2	0	0	0	0	26.3776	-0.959465	-0.959481	-0.0243634	1	-0.000109865	39	22.3562	2.33762e-05
2	0	0	1	0	27.2574	-0.981461	-0.981437	-0.039773	1	-0.000139309	39	23.236	3.90347e-05
2	0	0	1	0	28.1374	-1.00346	-1.00344	-0.0579688	1	-0.000183522	39	24.116	5.81682e-05
2	0	0	0	0	29.0172	-1.02545	-1.02546	-0.0697519	1	-0.000241883	39	24.9958	7.15278e-05
2	0	0	1	0	29.897	-1.04745	-1.04746	-0.0752959	1	-0.000307374	39	25.8756	7.88694e-05
2	0	0	0	0	30.7768	-1.06945	-1.06943	-0.0774189	1	-0.000375857	39	26.7554	8.27943e-05
2	0	0	1	0	31.6567	-1.09144	-1.09143	-0.079089	1	-0.000445982	39	27.6353	8.63201e-05
2	0	0	1	0	32.5366	-1.11344	-1.11342	-0.0820701	1	-0.000518105	39	28.5152	9.13782e-05
2	0	0	0	0	33.4164	-1.13544	-1.13542	-0.0954041	1	-0.000595904	39	29.395	0.000108324
2	0	0	1	0	34.2962	-1.15743	-1.1574	-0.211823	1	-0.000712397	39	30.2748	0.000245164
2	0	0	1	0	35.1762	-1.17943	-1.17939	-0.439907	1	-0.0010422	39	31.1548	0.000518821
2	0	0	0	0	36.056	-1.20142	-1.20142	-0.380784	1	-0.00140424	39	32.0346	0.00045748
2	0	0	1	0	36.9358	-1.22342	-1.22338	-0.357934	1	-0.00172305	39	32.9144	0.000437888
2	0	0	0	0	37.8156	-1.24542	-1.2454	-0.39003	1	-0.0020486	39	33.7942	0.000485743
2	0	0	0	0	38.6956	-1.26741	-1.26739	-0.498509	1	-0.00243566	39	34.6742	0.000631804
2	0	0	1	0	39.5754	-1.28941	-1.28939	-0.80835	1	-0.00298792	39	35.554	0.00104227
2	0	0	0	0	40.4552	-1.31141	-1.31135	-1.84193	1	-0.00408907	39	36.4338	0.00241542
2	0	0	1	0	41.335	-1.3334	-1.33337	-3.36873	1	-0.00639403	39	37.3136	0.00449176
2	0	0	1	1	42.1032	-1.3474	-1.34741	-4.31469	2	-0.00945705	39	38.0818	0.00581365
2	0	0	0	1	42.983	-1.3254	-1.32536	-3.20079	2	-0.0127581	39	38.9616	0.00424219
2	0	0	0	1	43.863	-1.30341	-1.3034	-2.2891	2	-0.0151632	39	39.8416	0.00298361
2	0	0	1	1	44.7428	-1.28141	-1.28138	-1.64147	2	-0.0168746	39	40.7214	0.00210336
2	0	0	0	1	45.6226	-1.25941	-1.25939	-1.23088	2	-0.0181291	39	41.6012	0.00155016
2	0	0	1	1	46.5024	-1.23742	-1.23739	-0.974077	2	-0.0190862	39	42.481	0.00120531
2	0	0	1	1	47.3824	-1.21542	-1.21539	-0.81599	2	-0.0198642	39	43.361	0.000991746
2	0	0	0	1	48.2622	-1.19343	-1.19341	-0.688682	2	-0.0205259	39	44.2408	0.000821879
2	0	0	1	1	49.142	-1.17143	-1.17141	-0.569235	2	-0.0210803	39	45.1206	0.000666808
2	0	0	0	1	50.0218	-1.14943	-1.14942	-0.413326	2	-0.0215094	39	46.0004	0.000475086
2	0	0	0	1	50.9018	-1.12744	-1.1274	-0.269392	2	-0.0218058	39	46.8804	0.000303714
2	0	0	1	1	51.7816	-1.10544	-1.1054	-0.158375	2	-0.0219893	39	47.7602	0.000175067
2	0	0	0	1	52.6614	-1.08344	-1.08342	-0.085985	2	-0.0220926	39	48.64	9.3158e-05
2	0	0	1	1	53.5412	-1.06145	-1.06143	-0.0393261	2	-0.0221443	39	49.5198	4.17419e-05
2	1	0	1	1	54.4212	-1.03945	-1.03944	-0.00198382	2	-0.0221612	39	50.3998	2.06207e-06
2	1	0	0	1	55.301	-1.01746	-1.01743	0.0432776	2	-0.0221396	39	0.8398	-4.4032e-05
2	1	0	1	1	56.1808	-0.995459	-0.995451	0.0538884	2	-0.0220956	39	1.7196	-5.36433e-05
2	1	0	0	1	57.0606	-0.973463	-0.973429	0.0766512	2	-0.022037	39	2.5994	-7.46145e-05
2	1	0	0	1	57.9406	-0.951466	-0.951448	0.119424	2	-0.0219503	39	3.4794	-0.000113626
2	1	0	1	1	58.8204	-0.92947	-0.929457	0.186969	2	-0.0218147	39	4.3592	-0.000173779
2	1	0	0	1	59.7002	-0.907474	-0.907458	0.263355	2	-0.0216162	39	5.239	-0.000238983
2	1	0	1	1	60.58	-0.885478	-0.88546	0.314937	2	-0.0213584	39	6.1188	-0.000278865
2	1	0	1	1	61.46	-0.863481	-0.863458	0.30009	2	-0.0210801	39	6.9988	-0.000259115
2	1	0	0	1	62.3398	-0.841485	-0.84148	0.256555	2	-0.0208337	39	7.8786	-0.000215886
2	1	0	1	1	63.2196	-0.819489	-0.819489	0.222475	2	-0.0206203	39	8.7584	-0.000182316
2	1	0	0	1	64.0994	-0.797492	-0.797486	0.184116	2	-0.0204391	39	9.6382	-0.00014683
2	1	0	0	1	64.9794	-0.775496	-0.775495	0.151678	2	-0.0202907	39	10.5182	-0.000117626
2	1	0	1	1	65.8592	-0.7535	-0.753488	0.123881	2	-0.0201687	39	11.398	-9.3343e-05
2	1	0	0	1	66.739	-0.731504	-0.73151	0.102629	2	-0.0200672	39	12.2778	-7.50741e-05
2	1	0	1	1	67.6188	-0.709507	-0.709489	0.0867325	2	-0.0199823	39	13.1576	-6.15357e-05
2	1	0	1	1	68.4988	-0.687511	-0.687505	0.0741755	2	-0.0199108	39	14.0376	-5.0996e-05
2	1	0	0	1	69.3786	-0.665515	-0.66551	0.0643048	2	-0.0198485	39	14.9174	-4.27955e-05
2	1	0	1	1	70.2584	-0.643519	-0.643537	0.0569603	2	-0.0197938	39	15.7972	-3.66561e-05
2	1	0	0	1	71.1382	-0.621522	-0.62153	0.0502337	2	-0.0197456	39	16.677	-3.12217e-05
2	1	0	0	1	72.0182	-0.599526	-0.599535	0.0444489	2	-0.0197024	39	17.557	-2.66487e-05
2	1	0	1	1	72.898	-0.57753	-0.577538	0.0407808	2	-0.0196634	39	18.4368	-2.35525e-05
2	1	0	0	1	73.7778	-0.555534	-0.555548	0.0374729	2	-0.0196279	39	19.3166	-2.0818e-05
2	1	0	1	1	74.6576	-0.533537	-0.53355	0.03516	2	-0.0195947	39	20.1964	-1.87596e-05
2	1	0	1	1	75.5376	-0.511541	-0.51155	0.0332991	2	-0.0195637	39	21.0764	-1.70342e-05
2	1	0	0	1	76.4174	-0.489545	-0.48955	0.0316159	2	-0.0195339	39	21.9562	-1.54776e-05
2	1	0	1	1	77.2972	-0.467549	-0.467543	0.0309468	2	-0.0195052	39	22.836	-1.44689e-05
2	1	0	0	1	78.177	-0.445552	-0.445547	0.0306176	2	-0.019477	39	23.7158	-1.36416e-05
2	1	0	0	1	79.057	-0.423556	-0.423574	0.0302501	2	-0.0194492	39	24.5958	-1.28132e-05
2	1	0	1	1	79.9368	-0.40156	-0.401558	0.0297834	2	-0.0194216	39	25.4756	-1.19598e-05
2	1	0	0	1	80.8166	-0.379564	-0.379564	0.0300626	2	-0.0193942	39	26.3554	-1.14107e-05
2	1	0	1	1	81.6964	-0.357567	-0.357593	0.0307812	2	-0.0193663	39	27.2352	-1.10072e-05
2	1	0	1	1	82.5764	-0.335571	-0.335582	0.0316731	2	-0.0193378	39	28.1152	-1.06289e-05
2	1	0	0	1	83.4562	-0.313575	-0.313611	0.0317899	2	-0.019309	39	28.995	-9.96967e-06
2	1	0	0	1	84.3006	-0.307576	-0.307601	0.0273054	2	-0.0192825	39	29.8394	-8.39916e-06
2	1	0	1	1	85.1804	-0.329572	-0.329563	0.0211737	2	-0.0192626	39	30.7192	-6.97805e-06
2	1	0	1	1	86.0604	-0.351568	-0.351574	0.0168282	2	-0.0192471	39	31.5992	-5.91634e-06
2	1	0	0	1	86.9402	-0.373565	-0.373563	0.0139877	2	-0.0192349	39	32.479	-5.22529e-06
2	1	0	1	1	87.82	-0.395561	-0.39558	0.0115679	2	-0.0192247	39	33.3588	-4.57604e-06
2	1	0	0	1	88.6998	-0.417557	-0.417567	0.00972041	2	-0.0192165	39	34.2386	-4.05892e-06
2	1	0	0	1	89.5798	-0.439553	-0.439563	0.00827758	2	-0.0192097	39	35.1186	-3.63852e-06
2	1	0	1	1	90.4596	-0.46155	-0.461569	0.00683053	2	-0.0192043	39	35.9984	-3.15276e-06
2	1	0	0	1	91.3394	-0.483546	-0.483564	0.00597876	2	-0.0192	39	36.8782	-2.89111e-06
2	1	0	1	1	92.2192	-0.505542	-0.505553	0.00459508	2	-0.0191965	39	37.758	-2.32305e-06
2	1	0	1	1	93.0992	-0.527538	-0.527567	0.00381324	2	-0.0191939	39	38.638	-2.01174e-06
2	1	0	0	1	93.979	-0.549535	-0.549538	0.00325014	2	-0.019192	39	39.5178	-1.78608e-06
2	1	0	1	1	94.8588	-0.571531	-0.571539	0.00272762	2	-0.0191907	39	40.3976	-1.55894e-06
2	1	0	0	1	95.7386	-0.593527	-0.593542	0.00217425	2	-0.01919	39	41.2774	-1.29051e-06
2	1	0	0	1	96.6186	-0.615523	-0.615544	0.001629	2	-0.0191897	39	0.000000000000000E+000	-1.00272e-06
2	1	0	1	1	97.4984	-0.63752	-0.637539	0.000953645	2	-0.0191898	39	0.28	-6.07985e-07
2	1	0	0	1	98.3782	-0.659516	-0.65953	0.000728151	2	-0.0191903	39	1.1598	-4.80237e-07
2	1	0	1	1	99.258	-0.681512	-0.681505	0.0006056	2	-0.0191911	39	2.0396	-4.12719e-07
2	1	0	1	1	100.138	-0.703508	-0.703547	0.000143297	2	-0.0191923	39	2.9196	-1.00816e-07
2	0	0	0	1	101.018	-0.725505	-0.725512	-0.000293499	2	-0.0191937	39	3.7994	2.12937e-07
2	0	0	1	1	101.894	-0.747401	-0.747405	-0.000314532	2	-0.0191952	39	4.6752	2.35083e-07
2	1	0	0	1	101.911	-0.747851	-0.747827	0.00138035	2	-0.0191952	39	4.693	-1.03226e-06