File: Fig 3/Fig 3_RRDE_np-Fe2O3_5mvs_ring_1.mpt
mode	ox/red	error	control changes	Ns changes	counter inc.	Ns	time/s	control/V	Ewe/V	<I>/mA	dQ/C	(Q-Qo)/C	I Range	Q charge/discharge/mA.h	half cycle	Energy charge/W.h	Energy discharge/W.h	Capacitance charge/µF	Capacitance discharge/µF	step time/s	Q discharge/mA.h	Q charge/mA.h	Capacity/mA.h	Efficiency/%	cycle number	P/W
2	1	1	0	0	0	0	0.1	-0.300043	-0.299896	-0.0881237	-8.81237e-06	-8.81237e-06	52	-2.44788e-06	0	0.000000000000000E+000	7.3411e-10	0.000000000000000E+000	0.000000000000000E+000	0.1	2.44788e-06	0.000000000000000E+000	2.44788e-06	0.0000000E+000	0.000000000000000E+000	2.6428e-05
2	0	0	0	0	0	0	10.2	-0.300043	-0.300003	-0.00228889	-6.49932e-05	-6.49932e-05	52	-1.80537e-05	0	0.000000000000000E+000	5.41527e-09	0.000000000000000E+000	607638	10.2	1.80537e-05	0.000000000000000E+000	1.80537e-05	0.0000000E+000	0.000000000000000E+000	6.86674e-07
2	0	0	0	0	0	0	20.3	-0.300043	-0.299904	-0.00147256	-8.28693e-05	-8.28693e-05	52	-2.30193e-05	0	0.000000000000000E+000	6.90464e-09	0.000000000000000E+000	1.08618e+07	20.3	2.30193e-05	0.000000000000000E+000	2.30193e-05	0.0000000E+000	0.000000000000000E+000	4.41626e-07
2	0	0	0	0	0	0	30.4	-0.300043	-0.299904	-0.00119824	-9.61538e-05	-9.61538e-05	52	-2.67094e-05	0	0.000000000000000E+000	8.01142e-09	0.000000000000000E+000	1.2554e+07	30.4	2.67094e-05	0.000000000000000E+000	2.67094e-05	0.0000000E+000	0.000000000000000E+000	3.59358e-07
2	0	0	0	0	0	0	40.5	-0.300043	-0.299923	-0.00105628	-0.00010748	-0.00010748	52	-2.98556e-05	0	0.000000000000000E+000	8.95505e-09	0.000000000000000E+000	4.02056e+06	40.5	2.98556e-05	0.000000000000000E+000	2.98556e-05	0.0000000E+000	0.000000000000000E+000	3.16803e-07
2	0	0	0	0	0	0	50.6	-0.300043	-0.299942	-0.000974617	-0.000117673	-0.000117673	52	-3.2687e-05	0	0.000000000000000E+000	9.80426e-09	0.000000000000000E+000	2.56727e+06	50.6	3.2687e-05	0.000000000000000E+000	3.2687e-05	0.0000000E+000	0.000000000000000E+000	2.92329e-07
2	0	0	0	0	0	0	60.7	-0.300043	-0.29993	-0.000901429	-0.000127106	-0.000127106	52	-3.53072e-05	0	0.000000000000000E+000	1.05901e-08	0.000000000000000E+000	3.69901e+06	60.7	3.53072e-05	0.000000000000000E+000	3.53072e-05	0.0000000E+000	0.000000000000000E+000	2.70366e-07
2	0	0	0	0	0	0	70.8	-0.300043	-0.299923	-0.000853719	-0.000135989	-0.000135989	52	-3.77746e-05	0	0.000000000000000E+000	1.13302e-08	0.000000000000000E+000	5.08698e+06	70.8	3.77746e-05	0.000000000000000E+000	3.77746e-05	0.0000000E+000	0.000000000000000E+000	2.5605e-07
2	0	0	0	0	0	0	80.9	-0.300043	-0.299995	-0.000810677	-0.000144391	-0.000144391	52	-4.01086e-05	0	0.000000000000000E+000	1.20302e-08	0.000000000000000E+000	1.45363e+06	80.9	4.01086e-05	0.000000000000000E+000	4.01086e-05	0.0000000E+000	0.000000000000000E+000	2.43199e-07
2	0	0	0	0	0	0	91	-0.300043	-0.299869	-0.000759578	-0.000152314	-0.000152314	52	-4.23093e-05	0	0.000000000000000E+000	1.26902e-08	0.000000000000000E+000	5.69131e+06	91	4.23093e-05	0.000000000000000E+000	4.23093e-05	0.0000000E+000	0.000000000000000E+000	2.27774e-07
2	0	0	0	0	0	0	101.1	-0.300043	-0.299904	-0.000720938	-0.000159776	-0.000159776	52	-4.43823e-05	0	0.000000000000000E+000	1.3312e-08	0.000000000000000E+000	2.09422e+07	101.1	4.43823e-05	0.000000000000000E+000	4.43823e-05	0.0000000E+000	0.000000000000000E+000	2.16212e-07
2	0	0	0	0	0	0	111.2	-0.300043	-0.299904	-0.000653721	-0.00016671	-0.00016671	52	-4.63083e-05	0	0.000000000000000E+000	1.38896e-08	0.000000000000000E+000	2.1766e+07	111.2	4.63083e-05	0.000000000000000E+000	4.63083e-05	0.0000000E+000	0.000000000000000E+000	1.96053e-07
2	0	0	0	0	0	0	121.3	-0.300043	-0.299953	-0.00055691	-0.000172912	-0.000172912	52	-4.8031e-05	0	0.000000000000000E+000	1.44063e-08	0.000000000000000E+000	3.01714e+06	121.3	4.8031e-05	0.000000000000000E+000	4.8031e-05	0.0000000E+000	0.000000000000000E+000	1.67047e-07
2	1	0	0	0	0	0	131.4	-0.300043	-0.299965	0.00101236	-0.000174452	-0.000174452	52	3.78618e-07	2	1.13554e-10	0.000000000000000E+000	27452.3	0.000000000000000E+000	2.8	0.000000000000000E+000	3.78618e-07	3.78618e-07	0.0000000E+000	1	-3.03673e-07
2	1	0	0	0	0	0	141.5	-0.300043	-0.299919	0.00471416	-0.000141412	-0.000141412	52	9.55642e-06	2	2.86623e-09	0.000000000000000E+000	9.01857e+06	0.000000000000000E+000	12.9	0.000000000000000E+000	9.55642e-06	9.55642e-06	0.0000000E+000	1	-1.41387e-06
2	1	0	0	0	0	0	151.6	-0.300043	-0.299854	0.00590665	-8.69092e-05	-8.69092e-05	52	2.4696e-05	2	7.40686e-09	0.000000000000000E+000	1.4545e+06	0.000000000000000E+000	23	0.000000000000000E+000	2.4696e-05	2.4696e-05	0.0000000E+000	1	-1.77113e-06
2	1	0	0	0	0	0	161.7	-0.300043	-0.29993	0.00640986	-2.41372e-05	-2.41372e-05	52	4.21327e-05	2	1.26365e-08	0.000000000000000E+000	9.92097e+06	0.000000000000000E+000	33.1	0.000000000000000E+000	4.21327e-05	4.21327e-05	0.0000000E+000	1	-1.92251e-06
2	1	0	0	0	0	0	171.8	-0.300043	-0.299881	0.000268532	2.40763e-05	2.40763e-05	52	5.55253e-05	2	1.6653e-08	0.000000000000000E+000	5.81216e+06	0.000000000000000E+000	43.2	0.000000000000000E+000	5.55253e-05	5.55253e-05	0.0000000E+000	1	-8.05276e-08
2	1	0	0	0	0	0	181.9	-0.300043	-0.299907	-2.84877e-05	2.3929e-05	2.3929e-05	52	-9.12683e-08	3	1.66681e-08	2.73729e-11	3.27319e+06	10745.5	8.2	9.12683e-08	0.000000000000000E+000	9.12683e-08	0.0000000E+000	1	8.54368e-09
2	1	0	0	0	0	0	192	-0.300043	-0.299915	7.36704e-05	2.40943e-05	2.40943e-05	52	6.24412e-08	10	1.87281e-11	0.000000000000000E+000	2451.3	0.000000000000000E+000	6.2	0.000000000000000E+000	6.24412e-08	6.24412e-08	0.0000000E+000	5	-2.20949e-08
2	1	0	0	0	0	0	202.1	-0.300043	-0.299938	0.000248796	2.56109e-05	2.56109e-05	52	4.83732e-07	10	1.45088e-10	0.000000000000000E+000	15193.1	0.000000000000000E+000	16.3	0.000000000000000E+000	4.83732e-07	4.83732e-07	0.0000000E+000	5	-7.46233e-08
2	1	0	0	0	0	0	212.2	-0.300043	-0.299873	0.000298323	2.87891e-05	2.87891e-05	52	2.53648e-07	12	7.60727e-11	0.000000000000000E+000	23899.8	0.000000000000000E+000	3	0.000000000000000E+000	2.53648e-07	2.53648e-07	0.0000000E+000	6	-8.94591e-08
2	1	0	0	0	0	0	222.3	-0.300043	-0.299885	0.000340078	3.20665e-05	3.20665e-05	52	1.16403e-06	12	3.49113e-10	0.000000000000000E+000	156582	0.000000000000000E+000	13.1	0.000000000000000E+000	1.16403e-06	1.16403e-06	0.0000000E+000	6	-1.01984e-07
2	1	0	0	0	0	0	232.4	-0.300043	-0.299946	0.000402792	3.58372e-05	3.58372e-05	52	2.21145e-06	12	6.63265e-10	0.000000000000000E+000	231686	0.000000000000000E+000	23.2	0.000000000000000E+000	2.21145e-06	2.21145e-06	0.0000000E+000	6	-1.20816e-07
2	1	0	0	0	0	0	242.5	-0.300043	-0.299953	0.000399692	3.99401e-05	3.99401e-05	52	3.35114e-06	12	1.00509e-09	0.000000000000000E+000	287299	0.000000000000000E+000	33.3	0.000000000000000E+000	3.35114e-06	3.35114e-06	0.0000000E+000	6	-1.19889e-07
2	1	0	0	0	0	0	252.6	-0.300043	-0.299938	0.000417977	4.40473e-05	4.40473e-05	52	4.49204e-06	12	1.34728e-09	0.000000000000000E+000	604927	0.000000000000000E+000	43.4	0.000000000000000E+000	4.49204e-06	4.49204e-06	0.0000000E+000	6	-1.25367e-07
2	1	0	0	0	0	0	262.7	-0.300043	-0.299972	0.000420998	4.81715e-05	4.81715e-05	52	5.63766e-06	12	1.6909e-09	0.000000000000000E+000	332198	0.000000000000000E+000	53.5	0.000000000000000E+000	5.63766e-06	5.63766e-06	0.0000000E+000	6	-1.26288e-07
2	1	0	0	0	0	0	272.8	-0.300043	-0.299961	0.00245305	6.04006e-05	6.04006e-05	52	9.03461e-06	12	2.70979e-09	0.000000000000000E+000	655069	0.000000000000000E+000	63.6	0.000000000000000E+000	9.03461e-06	9.03461e-06	0.0000000E+000	6	-7.3582e-07
2	1	0	0	0	0	0	282.9	-0.300043	-0.299934	0.00423795	9.63638e-05	9.63638e-05	52	1.90244e-05	12	5.70607e-09	0.000000000000000E+000	2.98839e+06	0.000000000000000E+000	73.7	0.000000000000000E+000	1.90244e-05	1.90244e-05	0.0000000E+000	6	-1.27111e-06
2	1	0	0	0	0	0	293	-0.300043	-0.29995	0.00427978	0.000140198	0.000140198	52	3.12006e-05	12	9.35791e-09	0.000000000000000E+000	2.93986e+06	0.000000000000000E+000	83.8	0.000000000000000E+000	3.12006e-05	3.12006e-05	0.0000000E+000	6	-1.28372e-06
2	1	0	0	0	0	0	303.1	-0.300043	-0.299915	0.00267642	0.000179802	0.000179802	52	4.22017e-05	12	1.26574e-08	0.000000000000000E+000	3.98265e+07	0.000000000000000E+000	93.9	0.000000000000000E+000	4.22017e-05	4.22017e-05	0.0000000E+000	6	-8.02698e-07
2	1	0	0	0	0	0	313.2	-0.300043	-0.299865	0.000833086	0.000194906	0.000194906	52	4.63972e-05	12	1.39156e-08	0.000000000000000E+000	3.64171e+06	0.000000000000000E+000	104	0.000000000000000E+000	4.63972e-05	4.63972e-05	0.0000000E+000	6	-2.49814e-07
2	1	0	0	0	0	0	323.3	-0.300043	-0.299938	0.00028712	0.000200056	0.000200056	52	4.78278e-05	12	1.43447e-08	0.000000000000000E+000	6.44081e+06	0.000000000000000E+000	114.1	0.000000000000000E+000	4.78278e-05	4.78278e-05	0.0000000E+000	6	-8.61182e-08
2	0	0	0	0	0	0	333.4	-0.300043	-0.299976	9.57288e-05	0.000201749	0.000201749	52	4.82981e-05	12	1.44857e-08	0.000000000000000E+000	2.67747e+06	0.000000000000000E+000	124.2	0.000000000000000E+000	4.82981e-05	4.82981e-05	0.0000000E+000	6	-2.87164e-08
2	0	0	0	0	0	0	343.5	-0.300043	-0.299877	-2.03276e-05	0.00020212	0.00020212	52	-5.36882e-09	13	1.45182e-08	1.61001e-12	4.53279e+07	1688.89	1.7	5.36882e-09	0.000000000000000E+000	5.36882e-09	0.0000000E+000	6	6.09577e-09
2	0	0	0	0	0	0	353.6	-0.300043	-0.299934	-0.000133273	0.000201311	0.000201311	52	-2.29926e-07	13	1.45182e-08	6.89581e-11	4.53279e+07	12039.1	11.8	2.29926e-07	0.000000000000000E+000	2.29926e-07	0.0000000E+000	6	3.99731e-08
2	0	0	0	0	0	0	363.7	-0.300043	-0.299908	-0.000232917	0.00019942	0.00019942	52	-7.55273e-07	13	1.45182e-08	2.26508e-10	4.53279e+07	64704.9	21.9	7.55273e-07	0.000000000000000E+000	7.55273e-07	0.0000000E+000	6	6.98537e-08
2	0	0	0	0	0	0	373.8	-0.300043	-0.299938	-0.00034957	0.00019648	0.00019648	52	-1.57206e-06	13	1.45182e-08	4.71461e-10	4.53279e+07	77987	32	1.57206e-06	0.000000000000000E+000	1.57206e-06	0.0000000E+000	6	1.04849e-07
2	0	0	0	0	0	0	383.9	-0.300043	-0.299953	-0.000466848	0.000192414	0.000192414	52	-2.70145e-06	13	1.45182e-08	8.1019e-10	4.53279e+07	110694	42.1	2.70145e-06	0.000000000000000E+000	2.70145e-06	0.0000000E+000	6	1.40033e-07
2	0	0	0	0	0	0	394	-0.300043	-0.299888	-0.000582128	0.000187109	0.000187109	52	-4.17499e-06	13	1.45182e-08	1.25212e-09	4.53279e+07	656670	52.2	4.17499e-06	0.000000000000000E+000	4.17499e-06	0.0000000E+000	6	1.74573e-07
2	0	0	0	0	0	0	404.1	-0.300043	-0.299877	-0.000707054	0.000180583	0.000180583	52	-5.98778e-06	13	1.45182e-08	1.79577e-09	4.53279e+07	1.88359e+06	62.3	5.98778e-06	0.000000000000000E+000	5.98778e-06	0.0000000E+000	6	2.12029e-07
2	0	0	0	0	0	0	410.959	-0.300043	-0.299927	-0.000790372	0.000175514	0.000175514	52	-7.39586e-06	13	1.45182e-08	2.21804e-09	4.53279e+07	435588	69.1592	7.39586e-06	0.000000000000000E+000	7.39586e-06	15.2787	6	2.37054e-07