File: Fig 3/Fig 3_RRDE-np-Fe3O4_10mvs_ring.mpt
mode	ox/red	error	control changes	counter inc.	time/s	control/V	Ewe/V	<I>/mA	cycle number	(Q-Qo)/C	I Range	step time/s	P/W
2	1	0	1	0	0.000000000000000E+000	-0.299996	-0.299957	0.278089	1	0.0000000E+000	39	0.000000000000000E+000	-8.34147e-05
2	1	0	0	0	1.8548	-0.318543	-0.318541	0.0144993	1	4.24053e-05	39	1.7998	-4.61861e-06
2	1	0	0	0	3.7544	-0.337539	-0.337555	0.0112813	1	6.58082e-05	39	3.6994	-3.80807e-06
2	1	0	0	0	5.654	-0.356536	-0.356574	0.00925596	1	8.45999e-05	39	5.599	-3.30044e-06
2	1	0	1	0	7.5538	-0.375532	-0.375547	0.00811352	1	0.000100436	39	7.4988	-3.04701e-06
2	1	0	1	0	9.4534	-0.394529	-0.394508	0.0069751	1	0.000113851	39	9.3984	-2.75173e-06
2	1	0	1	0	11.353	-0.413526	-0.413548	0.00631508	1	0.00012561	39	11.298	-2.61159e-06
2	1	0	0	0	13.2528	-0.432522	-0.432559	0.00560239	1	0.000136128	39	13.1978	-2.42336e-06
2	1	0	0	0	15.1524	-0.451519	-0.451562	0.00489212	1	0.000145361	39	15.0974	-2.2091e-06
2	1	0	0	0	17.052	-0.470516	-0.470534	0.0044636	1	0.000153542	39	16.997	-2.10027e-06
2	1	0	1	0	18.9518	-0.489512	-0.489523	0.00401184	1	0.000160715	39	18.8968	-1.96389e-06
2	1	0	1	0	20.8514	-0.508509	-0.508524	0.00346732	1	0.000167067	39	20.7964	-1.76321e-06
2	1	0	1	0	22.751	-0.527506	-0.527514	0.0031299	1	0.000172785	39	22.696	-1.65107e-06
2	1	0	0	0	24.6508	-0.546502	-0.546524	0.00291242	1	0.000177842	39	24.5958	-1.59171e-06
2	1	0	0	0	26.5504	-0.565499	-0.56552	0.00253665	1	0.000182285	39	26.4954	-1.43453e-06
2	1	0	0	0	28.45	-0.584496	-0.584509	0.00235801	1	0.000186191	39	28.395	-1.37828e-06
2	1	0	1	0	30.3498	-0.603492	-0.603492	0.00221875	1	0.00018971	39	30.2948	-1.339e-06
2	1	0	1	0	32.2494	-0.622489	-0.622479	0.00196629	1	0.000192809	39	32.1944	-1.22397e-06
2	1	0	1	0	34.149	-0.641486	-0.641496	0.00161584	1	0.000195397	39	34.094	-1.03656e-06
2	1	0	0	0	36.0488	-0.660482	-0.660485	0.00139174	1	0.000197559	39	35.9938	-9.1922e-07
2	1	0	0	0	37.9484	-0.679479	-0.679502	0.0012634	1	0.00019914	39	37.8934	-8.58484e-07
2	1	0	0	0	39.848	-0.698476	-0.698476	0.000914172	1	0.000200194	39	39.793	-6.38528e-07
2	1	0	1	0	41.7478	-0.717472	-0.717509	0.000578533	1	0.00020074	39	41.6928	-4.15103e-07
2	1	0	1	0	43.6474	-0.736469	-0.73649	9.41985e-05	1	0.000200535	39	1.0998	-6.93763e-08
2	0	0	1	0	45.547	-0.755466	-0.755477	-0.000407727	1	0.000199385	39	2.9994	3.08028e-07
2	1	0	0	0	47.4468	-0.774462	-0.774451	-0.000864854	1	0.000197126	39	4.8992	6.69787e-07
2	1	0	0	0	49.3464	-0.793459	-0.793474	-0.0017877	1	0.000193639	39	6.7988	1.4185e-06
2	1	0	0	0	51.246	-0.812456	-0.812442	-0.00240487	1	0.000188851	39	8.6984	1.95382e-06
2	0	0	1	0	53.1458	-0.831452	-0.831459	-0.00322848	1	0.000182568	39	10.5982	2.68434e-06
2	0	0	1	0	55.0454	-0.850449	-0.850441	-0.00435166	1	0.000174353	39	12.4978	3.70083e-06
2	0	0	1	0	56.945	-0.869445	-0.869452	-0.00583342	1	0.000163686	39	14.3974	5.07188e-06
2	0	0	0	0	58.8448	-0.888442	-0.888438	-0.00720883	1	0.0001501	39	16.2972	6.4046e-06
2	0	0	0	0	60.7444	-0.907439	-0.907445	-0.00821157	1	0.000134229	39	18.1968	7.45154e-06
2	0	0	0	0	62.644	-0.926435	-0.926457	-0.00909721	1	0.000116679	39	20.0964	8.42817e-06
2	0	0	1	0	64.5438	-0.945432	-0.945436	-0.0107521	1	9.67438e-05	39	21.9962	1.01654e-05
2	0	0	1	0	66.4434	-0.964429	-0.964406	-0.0135805	1	7.25952e-05	39	23.8958	1.30971e-05
2	0	0	1	0	68.343	-0.983425	-0.983419	-0.0179441	1	4.16403e-05	39	25.7954	1.76466e-05
2	0	0	0	0	70.2428	-1.00242	-1.0024	-0.024067	1	6.05261e-07	39	27.6952	2.41248e-05
2	0	0	0	0	72.1424	-1.02142	-1.02141	-0.0309787	1	-5.29769e-05	39	29.5948	3.1642e-05
2	0	0	0	0	74.042	-1.04042	-1.04042	-0.0361842	1	-0.000118292	39	31.4944	3.76466e-05
2	0	0	1	0	75.9418	-1.05941	-1.05938	-0.038601	1	-0.000190961	39	33.3942	4.08931e-05
2	0	0	1	0	77.8414	-1.07841	-1.07839	-0.0377864	1	-0.000265043	39	35.2938	4.07483e-05
2	0	0	1	0	79.741	-1.09741	-1.09737	-0.034073	1	-0.000334839	39	37.1934	3.73907e-05
2	0	0	1	0	81.6408	-1.1164	-1.11639	-0.0296493	1	-0.000396584	39	39.0932	3.31001e-05
2	0	0	0	0	83.5404	-1.1354	-1.13539	-0.0257354	1	-0.000450177	39	40.9928	2.92198e-05
2	0	0	0	0	85.44	-1.1544	-1.15438	-0.0243055	1	-0.000498233	39	42.8924	2.80579e-05
2	0	0	1	0	87.3397	-1.17339	-1.17337	-0.0257817	1	-0.000546202	39	44.7921	3.02515e-05
2	0	0	1	0	89.2394	-1.19239	-1.19242	-0.0374529	1	-0.000604811	39	46.6918	4.46596e-05
2	0	0	1	0	91.139	-1.21139	-1.21138	-0.0541294	1	-0.000694749	39	48.5914	6.5571e-05
2	0	0	1	0	93.0387	-1.23038	-1.23038	-0.0639273	1	-0.000808626	39	50.4911	7.86551e-05
2	0	0	0	0	94.9384	-1.24938	-1.24936	-0.0785984	1	-0.00094246	39	52.3908	9.81975e-05
2	0	0	0	0	96.838	-1.26838	-1.26837	-0.111463	1	-0.00111916	39	54.2904	0.000141376
2	0	0	1	0	98.7377	-1.28737	-1.28733	-0.207631	1	-0.00140609	39	56.1901	0.00026729
2	0	0	1	0	100.637	-1.30637	-1.30632	-0.689105	1	-0.00216015	39	58.0898	0.00090019
2	0	0	1	0	102.537	-1.32537	-1.32535	-1.43415	1	-0.00422286	39	59.9894	0.00190075
2	0	0	1	0	104.437	-1.34436	-1.34438	-1.75382	1	-0.00734404	39	61.889	0.0023578
2	0	0	1	1	106.157	-1.33846	-1.33845	-1.41983	2	-0.0101874	39	63.6094	0.00190038
2	0	0	1	1	108.057	-1.31947	-1.31946	-1.05281	2	-0.0125145	39	65.509	0.00138914
2	0	0	0	1	109.956	-1.30047	-1.30047	-0.799292	2	-0.0142571	39	67.4088	0.00103945
2	0	0	0	1	111.856	-1.28147	-1.28144	-0.614107	2	-0.0155855	39	69.3084	0.000786941
2	0	0	0	1	113.756	-1.26248	-1.26244	-0.488822	2	-0.0166245	39	71.208	0.00061711
2	0	0	1	1	115.655	-1.24348	-1.24346	-0.402981	2	-0.0174644	39	73.1078	0.000501092
2	0	0	1	1	117.555	-1.22448	-1.22448	-0.342129	2	-0.0181673	39	75.0074	0.00041893
2	0	0	1	1	119.455	-1.20549	-1.20548	-0.291917	2	-0.018768	39	76.907	0.000351899
2	0	0	0	1	121.354	-1.18649	-1.18649	-0.242744	2	-0.0192753	39	78.8068	0.000288014
2	0	0	0	1	123.254	-1.16749	-1.16749	-0.187177	2	-0.0196832	39	80.7064	0.000218528
2	0	0	0	1	125.154	-1.1485	-1.14849	-0.131304	2	-0.0199833	39	82.606	0.000150802
2	0	0	1	1	127.053	-1.1295	-1.12949	-0.0870033	2	-0.0201868	39	84.5058	9.82695e-05
2	0	0	1	1	128.953	-1.1105	-1.11049	-0.0551938	2	-0.0203186	39	86.4054	6.12924e-05
2	0	0	1	1	130.853	-1.09151	-1.09151	-0.0330259	2	-0.0203998	39	88.305	3.6048e-05
2	0	0	0	1	132.752	-1.07251	-1.07252	-0.0160165	2	-0.0204444	39	90.2048	1.71779e-05
2	0	0	0	1	134.652	-1.05351	-1.05353	-0.00136069	2	-0.0204591	39	92.1044	1.43352e-06
2	1	0	0	1	136.552	-1.03452	-1.03453	0.0135485	2	-0.0204458	39	1.6996	-1.40163e-05
2	1	0	1	1	138.451	-1.01552	-1.01553	0.0224703	2	-0.0204099	39	3.5994	-2.28192e-05
2	1	0	1	1	140.351	-0.996523	-0.996537	0.0345434	2	-0.0203549	39	5.499	-3.44237e-05
2	1	0	1	1	142.251	-0.977526	-0.97755	0.0492506	2	-0.0202741	39	7.3986	-4.81449e-05
2	1	0	1	1	144.15	-0.958531	-0.958537	0.064315	2	-0.0201649	39	9.2983	-6.16483e-05
2	1	0	0	1	146.05	-0.939533	-0.939577	0.0781464	2	-0.020028	39	11.198	-7.34246e-05
2	1	0	0	1	147.95	-0.920537	-0.920549	0.0881714	2	-0.0198685	39	13.0976	-8.11661e-05
2	1	0	1	1	149.849	-0.90154	-0.901525	0.0964982	2	-0.019692	39	14.9973	-8.69955e-05
2	1	0	1	1	151.749	-0.882543	-0.88255	0.106213	2	-0.0194986	39	16.897	-9.37386e-05
2	1	0	1	1	153.649	-0.863547	-0.863533	0.121557	2	-0.0192822	39	18.7966	-0.000104968
2	1	0	1	1	155.548	-0.84455	-0.844545	0.143763	2	-0.0190298	39	20.6963	-0.000121415
2	1	0	0	1	157.448	-0.825553	-0.825558	0.158884	2	-0.0187382	39	22.596	-0.000131168
2	1	0	0	1	159.348	-0.806557	-0.806564	0.151956	2	-0.0184388	39	24.4956	-0.000122562
2	1	0	1	1	161.247	-0.78756	-0.787586	0.129477	2	-0.0181687	39	26.3953	-0.000101975
2	1	0	1	1	163.147	-0.768563	-0.768553	0.100706	2	-0.0179486	39	28.295	-7.73982e-05
2	1	0	1	1	165.047	-0.749567	-0.749565	0.0719723	2	-0.0177845	39	30.1946	-5.39479e-05
2	1	0	1	1	166.946	-0.730569	-0.730586	0.0481101	2	-0.0176705	39	32.0943	-3.51485e-05
2	1	0	0	1	168.846	-0.711573	-0.71158	0.0306379	2	-0.017596	39	33.994	-2.18014e-05
2	1	0	0	1	170.746	-0.692577	-0.692596	0.0195995	2	-0.0175483	39	35.8936	-1.35745e-05
2	1	0	0	1	172.645	-0.67358	-0.673568	0.0130594	2	-0.0175172	39	37.7932	-8.79642e-06
2	1	0	1	1	174.545	-0.654583	-0.654606	0.00985833	2	-0.017495	39	39.693	-6.45333e-06
2	1	0	1	1	176.445	-0.635587	-0.635588	0.00803397	2	-0.0174774	39	41.5926	-5.10629e-06
2	1	0	1	1	178.344	-0.61659	-0.616605	0.00715325	2	-0.0174624	39	43.4922	-4.41073e-06
2	1	0	0	1	180.244	-0.597593	-0.597596	0.00635507	2	-0.017449	39	45.392	-3.79776e-06
2	1	0	0	1	182.144	-0.578597	-0.57863	0.00591734	2	-0.0174365	39	47.2916	-3.42395e-06
2	1	0	0	1	184.043	-0.5596	-0.559618	0.00575655	2	-0.0174247	39	49.1912	-3.22147e-06
2	1	0	1	1	185.943	-0.540603	-0.540621	0.00548121	2	-0.0174133	39	51.091	-2.96326e-06
2	1	0	1	1	187.843	-0.521607	-0.521618	0.00535909	2	-0.0174023	39	52.9906	-2.79539e-06
2	1	0	1	1	189.742	-0.50261	-0.502624	0.00518694	2	-0.0173917	39	54.8902	-2.60708e-06
2	1	0	0	1	191.642	-0.483613	-0.483643	0.00504237	2	-0.0173813	39	56.79	-2.43871e-06
2	1	0	0	1	193.542	-0.464617	-0.464646	0.00507423	2	-0.017371	39	58.6896	-2.35772e-06
2	1	0	0	1	195.441	-0.44562	-0.445612	0.00485136	2	-0.017361	39	60.5892	-2.16182e-06
2	1	0	1	1	197.341	-0.426624	-0.426634	0.00464734	2	-0.0173511	39	62.489	-1.98271e-06
2	1	0	1	1	199.241	-0.407627	-0.407643	0.00486231	2	-0.0173414	39	64.3886	-1.98209e-06
2	1	0	1	1	201.14	-0.38863	-0.388636	0.00470304	2	-0.0173317	39	66.2882	-1.82777e-06
2	1	0	0	1	203.04	-0.369634	-0.369641	0.00474219	2	-0.0173221	39	68.188	-1.75291e-06
2	1	0	0	1	204.94	-0.350637	-0.350642	0.00458533	2	-0.0173126	39	70.0876	-1.60781e-06
2	1	0	0	1	206.839	-0.33164	-0.331648	0.00455708	2	-0.0173032	39	71.9872	-1.51135e-06
2	1	0	1	1	208.739	-0.312644	-0.312662	0.00456808	2	-0.0172938	39	73.887	-1.42827e-06
2	1	0	0	1	210.459	-0.304545	-0.304561	0.00398092	2	-0.0172858	39	75.6072	-1.21243e-06
2	1	0	0	1	212.359	-0.323542	-0.323559	0.00351778	2	-0.0172793	39	77.5068	-1.13821e-06
2	1	0	1	1	213.55	-0.335489	-0.335466	0.00252659	2	-0.0172758	39	78.6976	-8.47585e-07