File: Fig 3/Fig 3_RRDE-np-Fe2O3_100mvs_ring.mpt
mode	ox/red	error	control changes	counter inc.	time/s	control/V	Ewe/V	<I>/mA	cycle number	(Q-Qo)/C	I Range	step time/s	P/W
2	0	1	1	0	0.000000000000000E+000	-0.300025	-0.300134	-1.07052	1	0.0000000E+000	39	0.000000000000000E+000	0.000321298
2	0	0	1	0	0.5255	-0.352566	-0.352594	-0.00414084	1	-4.82634e-06	39	0.2	1.46004e-06
2	0	0	1	0	1.0555	-0.405557	-0.405567	-0.00517092	1	-8.54569e-06	39	0.73	2.09715e-06
2	0	0	1	0	1.5853	-0.458549	-0.458562	-0.00635603	1	-1.33443e-05	39	1.2598	2.91464e-06
2	0	0	1	0	2.1153	-0.51154	-0.511561	-0.00984045	1	-1.90182e-05	39	1.7898	5.03399e-06
2	0	0	1	0	2.6451	-0.564531	-0.564524	-0.0119477	1	-2.5572e-05	39	2.3196	6.74478e-06
2	0	0	1	0	3.1751	-0.617522	-0.617511	-0.0123318	1	-3.30142e-05	39	2.8496	7.615e-06
2	0	0	1	0	3.7049	-0.670513	-0.670501	-0.0134546	1	-4.14091e-05	39	3.3794	9.02131e-06
2	0	0	1	0	4.2349	-0.723504	-0.723517	-0.016691	1	-5.08652e-05	39	3.9094	1.20762e-05
2	0	0	1	0	4.7647	-0.776495	-0.776494	-0.0205955	1	-6.15795e-05	39	4.4392	1.59922e-05
2	0	0	1	0	5.2947	-0.829486	-0.829476	-0.022228	1	-7.37159e-05	39	4.9692	1.84376e-05
2	0	0	1	0	5.8247	-0.882477	-0.882466	-0.024708	1	-8.7731e-05	39	5.4992	2.18039e-05
2	0	0	1	0	6.3545	-0.935469	-0.935459	-0.0307022	1	-0.00010408	39	6.029	2.87206e-05
2	0	0	1	0	6.8845	-0.98846	-0.988431	-0.0475943	1	-0.000125065	39	6.559	4.70437e-05
2	0	0	1	0	7.4143	-1.04145	-1.04146	-0.100773	1	-0.000163513	39	7.0888	0.000104951
2	0	0	1	0	7.9443	-1.09444	-1.09444	-0.152766	1	-0.000233265	39	7.6188	0.000167193
2	0	0	1	0	8.4741	-1.14743	-1.14742	-0.244205	1	-0.000330872	39	8.1486	0.000280207
2	0	0	1	0	9.0041	-1.20042	-1.20041	-1.10808	1	-0.000719038	39	8.6786	0.00133015
2	0	0	1	0	9.5339	-1.25342	-1.25339	-1.34061	1	-0.00135897	39	9.2084	0.00168031
2	0	0	1	0	10.0639	-1.30641	-1.30638	-2.35805	1	-0.00225975	39	9.7384	0.0030805
2	0	0	1	1	10.5661	-1.3434	-1.34341	-5.24373	2	-0.00429029	39	10.2406	0.0070445
2	0	0	1	1	11.0961	-1.29041	-1.2904	-1.93152	2	-0.00612369	39	10.7706	0.00249243
2	0	0	1	1	11.6259	-1.23742	-1.2374	-0.604959	2	-0.00671576	39	11.3004	0.000748579
2	0	0	1	1	12.1559	-1.18443	-1.18439	-0.282723	2	-0.00693192	39	11.8304	0.000334853
2	0	0	1	1	12.6857	-1.13144	-1.13141	-0.123128	2	-0.00703494	39	12.3602	0.000139308
2	0	0	1	1	13.2157	-1.07844	-1.07843	-0.0156352	2	-0.0070666	39	12.8902	1.68615e-05
2	1	0	1	1	13.7457	-1.02545	-1.02543	0.101865	2	-0.00704906	39	0.43	-0.000104456
2	1	0	1	1	14.2755	-0.972462	-0.972451	0.180929	2	-0.00695361	39	0.9598	-0.000175944
2	1	0	1	1	14.8055	-0.919471	-0.919472	0.282959	2	-0.00683788	39	1.4898	-0.000260173
2	1	0	1	1	15.3353	-0.86648	-0.866464	0.439415	2	-0.0066349	39	2.0196	-0.000380737
2	1	0	1	1	15.8653	-0.813489	-0.813488	0.332785	2	-0.00642885	39	2.5496	-0.000270717
2	1	0	1	1	16.3951	-0.760498	-0.760488	0.271822	2	-0.00626869	39	3.0794	-0.000206718
2	1	0	1	1	16.9251	-0.707507	-0.707496	0.226587	2	-0.0061361	39	3.6094	-0.00016031
2	1	0	1	1	17.4549	-0.654516	-0.654513	0.203626	2	-0.00602057	39	4.1392	-0.000133276
2	1	0	1	1	17.9849	-0.601525	-0.601522	0.199917	2	-0.00591267	39	4.6692	-0.000120255
2	1	0	1	1	18.5149	-0.548533	-0.548528	0.195992	2	-0.00580598	39	5.1992	-0.000107507
2	1	0	1	1	19.0447	-0.495542	-0.495552	0.176346	2	-0.00570703	39	5.729	-8.73884e-05
2	1	0	1	1	19.5747	-0.442551	-0.442559	0.158104	2	-0.00561739	39	6.259	-6.99705e-05
2	1	0	1	1	20.1045	-0.38956	-0.38957	0.145344	2	-0.00553533	39	6.7888	-5.66215e-05
2	1	0	1	1	20.6345	-0.336569	-0.336589	0.141597	2	-0.00545792	39	7.3188	-4.76601e-05
2	1	0	1	1	21.1559	-0.315573	-0.315569	0.0974852	2	-0.00538892	39	7.8402	-3.07633e-05
2	1	0	1	1	21.6859	-0.368564	-0.368558	0.0501875	2	-0.00535286	39	8.3702	-1.8497e-05
2	1	0	1	1	22.2157	-0.421555	-0.4216	0.0299351	2	-0.00533395	39	8.9	-1.26206e-05
2	1	0	1	1	22.7457	-0.474546	-0.474549	0.0171156	2	-0.00532328	39	9.43	-8.1222e-06
2	1	0	1	1	23.2757	-0.527537	-0.527564	0.00914204	2	-0.0053174	39	9.96	-4.82301e-06
2	1	0	1	1	23.8055	-0.580528	-0.580538	0.00598649	2	-0.00531436	39	10.4898	-3.47538e-06
2	1	0	1	1	24.3355	-0.633519	-0.633549	0.00486922	2	-0.00531305	39	11.0198	-3.08489e-06
2	0	0	1	1	24.8653	-0.68651	-0.686505	0.00195237	2	-0.00531319	39	0.26	-1.34031e-06
2	0	0	1	1	25.3953	-0.739501	-0.739502	-0.00269969	2	-0.00531472	39	0.79	1.99643e-06
2	0	0	1	1	25.9251	-0.792493	-0.792506	-0.00668693	2	-0.00531803	39	1.3198	5.29944e-06
2	0	0	1	1	26.4551	-0.845484	-0.845504	-0.012036	2	-0.00532429	39	1.8498	1.01765e-05
2	0	0	1	1	26.9849	-0.898475	-0.898479	-0.0213249	2	-0.00533498	39	2.3796	1.916e-05
2	0	0	1	1	27.5149	-0.951466	-0.951462	-0.0455517	2	-0.00535319	39	2.9096	4.33407e-05
2	0	0	1	1	28.0449	-1.00446	-1.00444	-0.113543	2	-0.00539252	39	3.4396	0.000114047
2	0	0	1	1	28.5747	-1.05745	-1.05743	-0.45526	2	-0.00551688	39	3.9694	0.000481405
2	0	0	1	1	29.1047	-1.11044	-1.11042	-0.187214	2	-0.00569192	39	4.4994	0.000207886
2	0	0	1	1	29.6345	-1.16343	-1.16341	-0.181309	2	-0.00578553	39	5.0292	0.000210937
2	0	0	1	1	30.1645	-1.21642	-1.2164	-0.29716	2	-0.00590702	39	5.5592	0.000361465
2	0	0	1	1	30.6943	-1.26941	-1.26942	-0.706947	2	-0.00615113	39	6.089	0.000897411
2	0	0	1	1	31.2243	-1.3224	-1.32239	-2.1532	2	-0.00683065	39	6.619	0.00284735
2	0	0	1	0	31.7265	-1.3274	-1.32736	-2.71034	3	-0.00838793	39	7.1212	0.00359761
2	0	0	1	0	32.2565	-1.27441	-1.27438	-0.925125	3	-0.00927871	39	7.6512	0.00117896
2	0	0	1	0	32.7863	-1.22142	-1.2214	-0.373511	3	-0.00958813	39	8.181	0.000456205
2	0	0	1	0	33.3163	-1.16843	-1.16842	-0.197638	3	-0.00973141	39	8.711	0.000230923
2	0	0	1	0	33.8461	-1.11544	-1.11543	-0.070614	3	-0.00979862	39	9.2408	7.87646e-05
2	1	0	1	0	34.3761	-1.06245	-1.06244	0.0131281	3	-0.00981043	39	0.11	-1.39479e-05
2	1	0	1	0	34.9059	-1.00946	-1.00942	0.151725	3	-0.00977389	39	0.6398	-0.000153155
2	1	0	1	0	35.4359	-0.956465	-0.956425	0.144769	3	-0.00969713	39	1.1698	-0.000138461
2	1	0	1	0	35.9659	-0.903474	-0.903432	0.305788	3	-0.00958191	39	1.6998	-0.000276259
2	1	0	1	0	36.4957	-0.850483	-0.850463	0.40081	3	-0.00937863	39	2.2296	-0.000340874
2	1	0	1	0	37.0257	-0.797492	-0.797462	0.295414	3	-0.00919476	39	2.7596	-0.000235581
2	1	0	1	0	37.5555	-0.744501	-0.74448	0.228383	3	-0.00905715	39	3.2894	-0.000170027
2	1	0	1	0	38.0855	-0.691509	-0.691485	0.184881	3	-0.00894694	39	3.8194	-0.000127843
2	1	0	1	0	38.6153	-0.638518	-0.638495	0.16744	3	-0.00885229	39	4.3492	-0.000106909
2	1	0	1	0	39.1453	-0.585527	-0.585492	0.158909	3	-0.00876435	39	4.8792	-9.30397e-05
2	1	0	1	0	39.6751	-0.532536	-0.532515	0.147262	3	-0.00868167	39	5.409	-7.84192e-05
2	1	0	1	0	40.2051	-0.479545	-0.479527	0.130351	3	-0.00860667	39	5.939	-6.25066e-05
2	1	0	1	0	40.7351	-0.426554	-0.426544	0.119579	3	-0.008539	39	6.469	-5.10058e-05
2	1	0	1	0	41.2649	-0.373563	-0.37353	0.115026	3	-0.00847512	39	6.9988	-4.29657e-05
2	1	0	1	0	41.7949	-0.320572	-0.320564	0.110479	3	-0.00841448	39	7.5288	-3.54154e-05
2	1	0	1	0	42.3163	-0.33157	-0.331559	0.0674047	3	-0.00836686	39	8.0502	-2.23487e-05
2	1	0	1	0	42.8463	-0.384561	-0.384534	0.044219	3	-0.00833963	39	8.5802	-1.70037e-05
2	1	0	1	0	43.3761	-0.437552	-0.437523	0.031584	3	-0.00832136	39	9.11	-1.38187e-05
2	1	0	1	0	43.9061	-0.490543	-0.49052	0.0236078	3	-0.00830808	39	9.64	-1.15801e-05
2	1	0	1	0	44.4359	-0.543534	-0.543521	0.0194739	3	-0.0082978	39	10.1698	-1.05845e-05
2	1	0	1	0	44.9659	-0.596525	-0.596502	0.017385	3	-0.00828945	39	10.6998	-1.03702e-05
2	1	0	1	0	45.4959	-0.649517	-0.649496	0.0166338	3	-0.00828251	39	11.2298	-1.08036e-05
2	1	0	1	0	46.0257	-0.702508	-0.70251	0.0120116	3	-0.00827696	39	11.7596	-8.43828e-06
2	1	0	1	0	46.5557	-0.755499	-0.755496	0.00746716	3	-0.00827283	39	12.2896	-5.64142e-06
2	1	0	1	0	47.0855	-0.80849	-0.808466	0.00301329	3	-0.00827071	39	12.8194	-2.43614e-06
2	0	0	1	0	47.6155	-0.861481	-0.861458	-0.00361691	3	-0.00827251	39	0.44	3.11581e-06
2	0	0	1	0	48.1453	-0.914472	-0.914453	-0.0185034	3	-0.00828038	39	0.9698	1.69205e-05
2	0	0	1	0	48.6753	-0.967463	-0.967446	-0.0465327	3	-0.00829828	39	1.4998	4.50179e-05
2	0	0	1	0	49.2051	-1.02045	-1.02044	-0.114451	3	-0.00833782	39	2.0296	0.00011679
2	0	0	1	0	49.7351	-1.07345	-1.07344	-0.231709	3	-0.00845145	39	2.5596	0.000248727
2	0	0	1	0	50.2651	-1.12644	-1.12641	-0.118641	3	-0.00853492	39	3.0896	0.000133639
2	0	0	1	0	50.7949	-1.17943	-1.17941	-0.157715	3	-0.00860611	39	3.6194	0.00018601
2	0	0	1	0	51.3249	-1.23242	-1.23242	-0.30903	3	-0.00872242	39	4.1494	0.000380854
2	0	0	1	0	51.8547	-1.28541	-1.28538	-0.781726	3	-0.0089911	39	4.6792	0.00100481
2	0	0	1	0	52.3847	-1.3384	-1.33836	-2.16016	3	-0.00971517	39	5.2092	0.00289106
2	0	0	1	1	52.8869	-1.31141	-1.31133	-1.35074	3	-0.0107589	39	5.7114	0.00177127
2	0	0	1	1	53.4169	-1.25841	-1.25837	-0.502898	3	-0.0112064	39	6.2414	0.000632831
2	0	0	1	1	53.9467	-1.20542	-1.2054	-0.25083	3	-0.011393	39	6.7712	0.00030235
2	0	0	1	1	54.4767	-1.15243	-1.15239	-0.136376	3	-0.0114929	39	7.3012	0.000157159
2	0	0	1	1	55.0065	-1.09944	-1.09941	-0.0367698	3	-0.0115347	39	7.831	4.0425e-05
2	1	0	1	1	55.5365	-1.04645	-1.04642	0.026602	3	-0.011535	39	0.26	-2.78367e-05
2	1	0	1	1	56.0663	-0.993459	-0.993431	0.0879451	3	-0.0114959	39	0.7898	-8.73674e-05
2	1	0	1	1	56.5963	-0.940468	-0.940429	0.121429	3	-0.0114451	39	1.3198	-0.000114196
2	1	0	1	1	57.1261	-0.887477	-0.887469	0.264961	3	-0.0113425	39	1.8496	-0.000235145
2	1	0	1	1	57.6561	-0.834486	-0.834473	0.303672	3	-0.0111788	39	2.3796	-0.000253406
2	1	0	1	1	58.1861	-0.781494	-0.781482	0.223301	3	-0.0110388	39	2.9096	-0.000174506
2	1	0	1	1	58.7159	-0.728503	-0.728503	0.16762	3	-0.010936	39	3.4394	-0.000122111
2	1	0	1	1	59.2459	-0.675512	-0.675477	0.136835	3	-0.0108549	39	3.9694	-9.24288e-05
2	1	0	1	1	59.7757	-0.622521	-0.622518	0.119924	3	-0.0107853	39	4.4992	-7.4655e-05
2	1	0	1	1	60.3057	-0.56953	-0.569527	0.113138	3	-0.010722	39	5.0292	-6.44353e-05
2	1	0	1	1	60.8355	-0.516539	-0.516519	0.102776	3	-0.0106637	39	5.559	-5.3086e-05
2	1	0	1	1	61.3655	-0.463548	-0.463567	0.0913123	3	-0.0106112	39	6.089	-4.23294e-05
2	1	0	1	1	61.8953	-0.410557	-0.410583	0.0851253	3	-0.0105625	39	6.6188	-3.4951e-05
2	1	0	1	1	62.4253	-0.357565	-0.357566	0.0806813	3	-0.0105168	39	7.1488	-2.88488e-05
2	1	0	1	1	62.9553	-0.304574	-0.304571	0.0786848	3	-0.0104732	39	7.6788	-2.39651e-05
2	1	0	1	1	63.4851	-0.251583	-0.251577	0.0776408	3	-0.0104307	39	8.2086	-1.95327e-05
2	1	0	0	1	63.7156	-0.228537	-0.228577	0.0763987	3	-0.0104125	39	8.4391	-1.7463e-05