File: Fig 3/Fig 3_RRDE-np-Fe3O4_500mvs_ring.mpt
mode	ox/red	error	control changes	counter inc.	time/s	control/V	Ewe/V	<I>/mA	cycle number	(Q-Qo)/C	I Range	step time/s	P/W
2	1	0	1	0	0.000000000000000E+000	-0.299996	-0.298785	8.67467	1	0.0000000E+000	39	0.000000000000000E+000	-0.00259186
2	1	0	1	0	0.0935	-0.346738	-0.346766	0.0098508	1	1.45142e-05	39	0.0933	-3.41592e-06
2	0	0	1	0	0.1915	-0.395729	-0.395729	-0.00583053	1	1.45176e-05	39	0.046	2.30731e-06
2	0	0	1	0	0.2895	-0.44472	-0.444738	-0.0124636	1	1.35555e-05	39	0.144	5.54305e-06
2	0	0	1	0	0.3875	-0.493712	-0.493719	-0.0177954	1	1.20825e-05	39	0.242	8.78593e-06
2	0	0	1	0	0.4855	-0.542703	-0.542734	-0.021561	1	1.02203e-05	39	0.34	1.17019e-05
2	0	0	1	0	0.5837	-0.591894	-0.591894	-0.0253813	1	7.99535e-06	39	0.4382	1.50231e-05
2	0	0	1	0	0.6817	-0.640886	-0.640911	-0.0286704	1	5.40131e-06	39	0.5362	1.83752e-05
2	0	0	1	0	0.7797	-0.689877	-0.689874	-0.0323767	1	2.40812e-06	39	0.6342	2.23358e-05
2	0	0	1	0	0.8777	-0.738869	-0.738875	-0.0389054	1	-1.14132e-06	39	0.7322	2.87463e-05
2	0	0	1	0	0.9757	-0.78786	-0.787861	-0.0498299	1	-5.54863e-06	39	0.8302	3.92591e-05
2	0	0	1	0	1.0737	-0.836851	-0.836846	-0.0653308	1	-1.11902e-05	39	0.9282	5.46718e-05
2	0	0	1	0	1.1717	-0.885843	-0.88583	-0.0868605	1	-1.85685e-05	39	1.0262	7.69436e-05
2	0	0	1	0	1.2697	-0.934834	-0.934831	-0.115167	1	-2.8329e-05	39	1.1242	0.000107661
2	0	0	1	0	1.3677	-0.983825	-0.983801	-0.146011	1	-4.10243e-05	39	1.2222	0.000143646
2	0	0	1	0	1.4657	-1.03282	-1.0328	-0.171985	1	-5.6631e-05	39	1.3202	0.000177627
2	0	0	1	0	1.5637	-1.08181	-1.08177	-0.198349	1	-7.4731e-05	39	1.4182	0.000214567
2	0	0	1	0	1.6617	-1.1308	-1.13079	-0.271399	1	-9.72048e-05	39	1.5162	0.000306895
2	0	0	1	0	1.7599	-1.17999	-1.17996	-0.476938	1	-0.000131826	39	1.6144	0.000562768
2	0	0	1	0	1.8579	-1.22898	-1.22896	-1.82212	1	-0.000231288	39	1.7124	0.00223932
2	0	0	1	0	1.9559	-1.27797	-1.27798	-3.32735	1	-0.000490714	39	1.8104	0.00425229
2	0	0	1	0	2.0539	-1.32696	-1.32692	-4.02476	1	-0.000854221	39	1.9084	0.00534055
2	0	0	1	1	2.1457	-1.32736	-1.32736	-3.65339	2	-0.00123362	39	2.0002	0.00484938
2	0	0	1	1	2.2437	-1.27837	-1.27836	-1.96461	2	-0.00150476	39	2.0982	0.00251148
2	0	0	1	1	2.3417	-1.22938	-1.22938	-0.924653	2	-0.00164075	39	2.1962	0.00113675
2	0	0	1	1	2.4397	-1.18039	-1.18039	-0.424524	2	-0.00170365	39	2.2942	0.000501104
2	0	0	1	1	2.5379	-1.1312	-1.13118	-0.158032	2	-0.00173102	39	2.3924	0.000178762
2	1	0	1	1	2.6359	-1.08221	-1.0822	0.0114621	2	-0.00173733	39	0.008	-1.24043e-05
2	1	0	1	1	2.7339	-1.03322	-1.03319	0.125798	2	-0.0017304	39	0.106	-0.000129974
2	1	0	1	1	2.8319	-0.984225	-0.984236	0.262622	2	-0.0017112	39	0.204	-0.000258482
2	1	0	1	1	2.9299	-0.935234	-0.935263	0.299421	2	-0.00168419	39	0.302	-0.000280037
2	1	0	1	1	3.0279	-0.886243	-0.886257	0.430984	2	-0.00164914	39	0.4	-0.000381963
2	1	0	1	1	3.1259	-0.837251	-0.837272	0.538707	2	-0.00160059	39	0.498	-0.000451044
2	1	0	1	1	3.2239	-0.78826	-0.788274	0.502931	2	-0.00154889	39	0.596	-0.000396447
2	1	0	1	1	3.3219	-0.739268	-0.739276	0.435564	2	-0.00150281	39	0.694	-0.000322002
2	1	0	1	1	3.4199	-0.690277	-0.690279	0.374548	2	-0.00146315	39	0.792	-0.000258543
2	1	0	1	1	3.5179	-0.641286	-0.64131	0.34155	2	-0.00142826	39	0.89	-0.000219039
2	1	0	1	1	3.6159	-0.592294	-0.592321	0.336348	2	-0.00139522	39	0.988	-0.000199226
2	1	0	1	1	3.7141	-0.543103	-0.543152	0.334663	2	-0.00136225	39	1.0862	-0.000181773
2	1	0	1	1	3.8121	-0.494112	-0.494146	0.312973	2	-0.00133045	39	1.1842	-0.000154655
2	1	0	1	1	3.9101	-0.44512	-0.445149	0.287702	2	-0.00130114	39	1.2822	-0.00012807
2	1	0	1	1	4.0081	-0.396129	-0.396177	0.268536	2	-0.00127396	39	1.3802	-0.000106388
2	1	0	1	1	4.1061	-0.347138	-0.347182	0.25508	2	-0.00124829	39	1.4782	-8.85591e-05
2	1	0	0	1	4.2004	-0.299996	-0.299992	0.246864	2	-0.00122461	39	1.5725	-7.40572e-05
2	1	0	1	1	4.2957	-0.347637	-0.347638	0.114722	2	-0.00120991	39	1.6678	-3.98818e-05
2	1	0	1	1	4.3937	-0.396629	-0.396644	0.0696883	2	-0.00120114	39	1.7658	-2.76415e-05
2	1	0	1	1	4.4917	-0.44562	-0.445642	0.0426803	2	-0.00119575	39	1.8638	-1.90201e-05
2	1	0	1	1	4.5897	-0.494612	-0.494636	0.0236919	2	-0.00119251	39	1.9618	-1.17189e-05
2	1	0	1	1	4.6877	-0.543603	-0.543633	0.0106709	2	-0.00119076	39	2.0598	-5.80106e-06
2	1	0	1	1	4.7859	-0.592794	-0.592799	0.00133485	2	-0.00119013	39	2.158	-7.913e-07
2	0	0	1	1	4.8839	-0.641786	-0.641804	-0.00631223	2	-0.00119037	39	0.068	4.05121e-06
2	0	0	1	1	4.9819	-0.690777	-0.690789	-0.0131243	2	-0.00119135	39	0.166	9.06613e-06
2	0	0	1	1	5.0799	-0.739768	-0.739787	-0.0221338	2	-0.00119314	39	0.264	1.63743e-05
2	0	0	1	1	5.1779	-0.78876	-0.788759	-0.0354135	2	-0.001196	39	0.362	2.79328e-05
2	0	0	1	1	5.2759	-0.837751	-0.837757	-0.0551728	2	-0.00120043	39	0.46	4.62214e-05
2	0	0	1	1	5.3739	-0.886742	-0.886756	-0.0767326	2	-0.00120689	39	0.558	6.80431e-05
2	0	0	1	1	5.4719	-0.935734	-0.935731	-0.0945261	2	-0.00121519	39	0.656	8.8451e-05
2	0	0	1	1	5.5699	-0.984725	-0.984718	-0.126917	2	-0.00122566	39	0.754	0.000124978
2	0	0	1	1	5.6679	-1.03372	-1.03371	-0.216105	2	-0.0012419	39	0.852	0.00022339
2	0	0	1	1	5.7659	-1.08271	-1.08269	-0.377983	2	-0.00127047	39	0.95	0.000409238
2	0	0	1	1	5.8639	-1.1317	-1.1317	-0.396361	2	-0.00130656	39	1.048	0.00044856
2	0	0	1	1	5.9621	-1.18089	-1.18087	-0.622914	2	-0.00135555	39	1.1462	0.00073558
2	0	0	1	1	6.0601	-1.22988	-1.22989	-0.835078	2	-0.00142737	39	1.2442	0.00102705
2	0	0	1	1	6.1581	-1.27887	-1.27884	-1.17431	2	-0.00152342	39	1.3422	0.00150176
2	0	0	1	1	6.2561	-1.32786	-1.32787	-2.4239	2	-0.00168902	39	1.4402	0.00321863
2	0	0	1	0	6.3481	-1.32637	-1.32637	-2.48301	3	-0.00195132	39	1.5322	0.00329338
2	0	0	1	0	6.4461	-1.27737	-1.27736	-1.13649	3	-0.00212377	39	1.6302	0.0014517
2	0	0	1	0	6.5441	-1.22838	-1.22839	-0.471276	3	-0.00219748	39	1.7282	0.00057891
2	0	0	1	0	6.6421	-1.17939	-1.17938	-0.202365	3	-0.00222876	39	1.8262	0.000238666
2	0	0	1	0	6.7403	-1.1302	-1.1302	-0.0622044	3	-0.00224116	39	1.9244	7.03035e-05
2	1	0	1	0	6.8383	-1.08121	-1.08122	0.0401564	3	-0.00224188	39	0.042	-4.34178e-05
2	1	0	1	0	6.9363	-1.03222	-1.03225	0.148514	3	-0.00223297	39	0.14	-0.000153304
2	1	0	1	0	7.0343	-0.983225	-0.983239	0.32394	3	-0.00220944	39	0.238	-0.00031851
2	1	0	1	0	7.1323	-0.934234	-0.93427	0.351594	3	-0.00217713	39	0.336	-0.000328484
2	1	0	1	0	7.2303	-0.885243	-0.885252	0.493121	3	-0.00213651	39	0.434	-0.000436537
2	1	0	1	0	7.3283	-0.836251	-0.836285	0.601187	3	-0.0020816	39	0.532	-0.000502763
2	1	0	1	0	7.4263	-0.78726	-0.787293	0.559136	3	-0.00202405	39	0.63	-0.000440203
2	1	0	1	0	7.5243	-0.738269	-0.738312	0.491206	3	-0.00197253	39	0.728	-0.000362663
2	1	0	1	0	7.6223	-0.689277	-0.689284	0.427813	3	-0.00192751	39	0.826	-0.000294885
2	1	0	1	0	7.7203	-0.640286	-0.640293	0.387832	3	-0.00188769	39	0.924	-0.000248326
2	1	0	1	0	7.8183	-0.591294	-0.591308	0.373458	3	-0.0018505	39	1.022	-0.000220828
2	1	0	1	0	7.9165	-0.542103	-0.542121	0.364832	3	-0.00181419	39	1.1202	-0.000197783
2	1	0	1	0	8.0145	-0.493112	-0.493126	0.340139	3	-0.0017796	39	1.2182	-0.000167731
2	1	0	1	0	8.1125	-0.44412	-0.444162	0.309412	3	-0.00174788	39	1.3162	-0.000137429
2	1	0	1	0	8.2105	-0.395129	-0.395166	0.284129	3	-0.00171887	39	1.4142	-0.000112278
2	1	0	1	0	8.3085	-0.346138	-0.346188	0.268879	3	-0.00169178	39	1.5122	-9.30827e-05
2	1	0	0	0	8.401	-0.300096	-0.300133	0.253657	3	-0.00166734	39	1.6047	-7.61308e-05
2	1	0	1	0	8.4981	-0.348637	-0.348664	0.134239	3	-0.00165075	39	1.7018	-4.68044e-05
2	1	0	1	0	8.5961	-0.397629	-0.397641	0.0914228	3	-0.00163995	39	1.7998	-3.63535e-05
2	1	0	1	0	8.6941	-0.44662	-0.446658	0.0631321	3	-0.0016325	39	1.8978	-2.81985e-05
2	1	0	1	0	8.7921	-0.495611	-0.495635	0.043063	3	-0.00162731	39	1.9958	-2.13435e-05
2	1	0	1	0	8.8901	-0.544603	-0.544627	0.0284751	3	-0.00162378	39	2.0938	-1.55083e-05
2	1	0	1	0	8.9883	-0.593794	-0.593812	0.0163572	3	-0.00162151	39	2.192	-9.7131e-06
2	1	0	1	0	9.0863	-0.642785	-0.642816	0.00820899	3	-0.00162023	39	2.29	-5.27687e-06
2	1	0	1	0	9.1843	-0.691777	-0.691795	0.000802842	3	-0.00161979	39	2.388	-5.55402e-07
2	0	0	1	0	9.2823	-0.740768	-0.740798	-0.00873578	3	-0.00162023	39	0.094	6.47145e-06
2	0	0	1	0	9.3803	-0.78976	-0.78977	-0.0237829	3	-0.00162188	39	0.192	1.8783e-05
2	0	0	1	0	9.4783	-0.838751	-0.838759	-0.0481994	3	-0.00162539	39	0.29	4.04277e-05
2	0	0	1	0	9.5763	-0.887742	-0.887776	-0.0735436	3	-0.00163137	39	0.388	6.52903e-05
2	0	0	1	0	9.6743	-0.936734	-0.936766	-0.0932077	3	-0.00163945	39	0.486	8.73139e-05
2	0	0	1	0	9.7723	-0.985725	-0.985743	-0.12635	3	-0.00164983	39	0.584	0.000124549
2	0	0	1	0	9.8703	-1.03472	-1.03474	-0.213358	3	-0.00166579	39	0.682	0.00022077
2	0	0	1	0	9.9683	-1.08371	-1.08371	-0.449272	3	-0.00169666	39	0.78	0.00048688
2	0	0	1	0	10.0663	-1.1327	-1.13271	-0.425875	3	-0.00174051	39	0.878	0.000482392
2	0	0	1	0	10.1645	-1.18189	-1.18188	-0.493991	3	-0.00178562	39	0.9762	0.000583838
2	0	0	1	0	10.2625	-1.23088	-1.23089	-0.542807	3	-0.00183596	39	1.0742	0.000668136
2	0	0	1	0	10.3605	-1.27987	-1.27986	-0.773499	3	-0.0018978	39	1.1722	0.00098997
2	0	0	1	0	10.4585	-1.32886	-1.32884	-1.79128	3	-0.0020167	39	1.2702	0.00238033
2	0	0	1	1	10.5505	-1.32537	-1.32533	-1.84022	3	-0.00221734	39	1.3622	0.00243891
2	0	0	1	1	10.6485	-1.27637	-1.27636	-0.764618	3	-0.00234026	39	1.4602	0.000975926
2	0	0	1	1	10.7465	-1.22738	-1.22738	-0.291356	3	-0.00238826	39	1.5582	0.000357604
2	0	0	1	1	10.8445	-1.17839	-1.17839	-0.114398	3	-0.00240694	39	1.6562	0.000134805
2	0	0	1	1	10.9427	-1.1292	-1.12921	-0.018325	3	-0.00241307	39	1.7544	2.06928e-05
2	1	0	1	1	11.0407	-1.08021	-1.0802	0.0557678	3	-0.002411	39	0.076	-6.02404e-05
2	1	0	1	1	11.1387	-1.03122	-1.03127	0.150826	3	-0.00240134	39	0.174	-0.000155543
2	1	0	1	1	11.2367	-0.982226	-0.982246	0.315881	3	-0.00237778	39	0.272	-0.000310273
2	1	0	1	1	11.3347	-0.933234	-0.933266	0.338605	3	-0.0023468	39	0.37	-0.000316009
2	1	0	1	1	11.4327	-0.884243	-0.884273	0.477253	3	-0.00230749	39	0.468	-0.000422022
2	1	0	1	1	11.5307	-0.835252	-0.835273	0.584188	3	-0.0022544	39	0.566	-0.000487956
2	1	0	1	1	11.6287	-0.78626	-0.786283	0.551618	3	-0.00219812	39	0.664	-0.000433728
2	1	0	1	1	11.7267	-0.737269	-0.737292	0.48451	3	-0.00214726	39	0.762	-0.000357225
2	1	0	1	1	11.8247	-0.688277	-0.688306	0.423349	3	-0.00210281	39	0.86	-0.000291394
2	1	0	0	1	11.8764	-0.662432	-0.662457	0.398192	3	-0.00208158	39	0.9117	-0.000263785