File: Fig 3/Fig 3_RRDE-np-Fe3O4_100mvs_ring.mpt
mode	ox/red	error	control changes	counter inc.	time/s	control/V	Ewe/V	<I>/mA	cycle number	(Q-Qo)/C	I Range	step time/s	P/W
2	1	0	0	0	0.000000000000000E+000	-0.299996	-0.300061	4.1043	1	0.0000000E+000	39	0.000000000000000E+000	-0.00123154
2	1	0	1	0	0.4955	-0.349537	-0.349877	0.0112728	1	2.05811e-05	39	0.49	-3.94409e-06
2	1	0	1	0	0.9955	-0.399528	-0.399895	0.00720201	1	2.46404e-05	39	0.99	-2.88004e-06
2	1	0	1	0	1.4953	-0.449519	-0.449914	0.0051549	1	2.73554e-05	39	1.4898	-2.31926e-06
2	1	0	1	0	1.9953	-0.499511	-0.49985	0.00364097	1	2.92287e-05	39	1.9898	-1.81994e-06
2	1	0	1	0	2.4951	-0.549502	-0.549869	0.0021972	1	3.03756e-05	39	2.4896	-1.20817e-06
2	1	0	1	0	2.9951	-0.599493	-0.599833	0.000696745	1	3.07969e-05	39	2.9896	-4.1793e-07
2	0	0	1	0	3.4949	-0.649484	-0.649819	-0.000653678	1	3.04691e-05	39	0.4398	4.24772e-07
2	0	0	1	0	3.9949	-0.699475	-0.699829	-0.00299832	1	2.92108e-05	39	0.9398	2.09831e-06
2	0	0	1	0	4.4949	-0.749467	-0.749822	-0.00641371	1	2.66105e-05	39	1.4398	4.80914e-06
2	0	0	1	0	4.9947	-0.799458	-0.799823	-0.0111736	1	2.20907e-05	39	1.9396	8.9369e-06
2	0	0	1	0	5.4947	-0.849449	-0.849779	-0.0194143	1	1.44304e-05	39	2.4396	1.64978e-05
2	0	0	1	0	5.9945	-0.89944	-0.899779	-0.0301609	1	1.82017e-06	39	2.9394	2.71382e-05
2	0	0	1	0	6.4945	-0.949431	-0.94975	-0.0395183	1	-1.57862e-05	39	3.4394	3.75325e-05
2	0	0	1	0	6.9943	-0.999423	-0.999745	-0.0478765	1	-3.79876e-05	39	3.9392	4.78642e-05
2	0	0	1	0	7.4943	-1.04941	-1.04973	-0.0540899	1	-6.35899e-05	39	4.4392	5.678e-05
2	0	0	1	0	7.9941	-1.09941	-1.09973	-0.0919901	1	-9.69158e-05	39	4.939	0.000101164
2	0	0	1	0	8.4941	-1.1494	-1.14974	-0.184568	1	-0.000167022	39	5.439	0.000212205
2	0	0	1	0	8.9941	-1.19939	-1.19972	-0.745437	1	-0.000377915	39	5.939	0.00089432
2	0	0	1	0	9.4939	-1.24938	-1.2497	-0.821269	1	-0.000776188	39	6.4388	0.00102634
2	0	0	1	0	9.9939	-1.29937	-1.2997	-1.07183	1	-0.00123525	39	6.9388	0.00139306
2	0	0	1	0	10.4937	-1.34936	-1.34969	-1.96822	1	-0.00196838	39	7.4386	0.00265649
2	0	0	1	1	10.9761	-1.30247	-1.3028	-0.934081	2	-0.00266907	39	7.921	0.00121692
2	0	0	1	1	11.4761	-1.25248	-1.25283	-0.363079	2	-0.00296693	39	8.421	0.000454876
2	0	0	1	1	11.9759	-1.20249	-1.2028	-0.165336	2	-0.00308993	39	8.9208	0.000198867
2	0	0	1	1	12.4759	-1.1525	-1.15284	-0.0762574	2	-0.00314768	39	9.4208	8.79129e-05
2	0	0	1	1	12.9759	-1.1025	-1.10285	-0.017586	2	-0.0031694	39	9.9208	1.93947e-05
2	1	0	1	1	13.4757	-1.05251	-1.05286	0.0232232	2	-0.00316675	39	0.31	-2.44508e-05
2	1	0	1	1	13.9757	-1.00252	-1.00288	0.0690938	2	-0.00314314	39	0.81	-6.92925e-05
2	1	0	1	1	14.4755	-0.952531	-0.952871	0.0985692	2	-0.00310216	39	1.3098	-9.39238e-05
2	1	0	1	1	14.9755	-0.90254	-0.902863	0.192039	2	-0.00303178	39	1.8098	-0.000173385
2	1	0	1	1	15.4753	-0.852549	-0.852866	0.287487	2	-0.0029069	39	2.3096	-0.000245188
2	1	0	1	1	15.9753	-0.802557	-0.80287	0.261234	2	-0.00276704	39	2.8096	-0.000209737
2	1	0	1	1	16.4751	-0.752566	-0.752891	0.217436	2	-0.00264653	39	3.3094	-0.000163706
2	1	0	1	1	16.9751	-0.702575	-0.70293	0.178609	2	-0.00254762	39	3.8094	-0.00012555
2	1	0	1	1	17.4751	-0.652584	-0.652957	0.155314	2	-0.00246424	39	4.3094	-0.000101413
2	1	0	1	1	17.9749	-0.602593	-0.602969	0.141339	2	-0.00238975	39	4.8092	-8.52233e-05
2	1	0	1	1	18.4749	-0.552601	-0.552978	0.128601	2	-0.00232168	39	5.3092	-7.11134e-05
2	1	0	1	1	18.9747	-0.50261	-0.50296	0.116267	2	-0.00226005	39	5.809	-5.84775e-05
2	1	0	1	1	19.4747	-0.452619	-0.452969	0.106434	2	-0.00220399	39	6.309	-4.82112e-05
2	1	0	1	1	19.9745	-0.402628	-0.402969	0.0992148	2	-0.00215217	39	6.8088	-3.99805e-05
2	1	0	1	1	20.4745	-0.352637	-0.352984	0.0936723	2	-0.00210357	39	7.3088	-3.30648e-05
2	1	0	1	1	20.9745	-0.302645	-0.303019	0.0893261	2	-0.00205744	39	7.8088	-2.70675e-05
2	1	0	1	1	21.4569	-0.345538	-0.345898	0.0561473	2	-0.00202478	39	8.2912	-1.94212e-05
2	1	0	1	1	21.9569	-0.395529	-0.39588	0.0418228	2	-0.00200097	39	8.7912	-1.65568e-05
2	1	0	1	1	22.4567	-0.44552	-0.445856	0.0331422	2	-0.00198277	39	9.291	-1.47767e-05
2	1	0	1	1	22.9567	-0.495511	-0.495855	0.0269949	2	-0.00196816	39	9.791	-1.33856e-05
2	1	0	1	1	23.4565	-0.545503	-0.545835	0.0225553	2	-0.00195612	39	10.2908	-1.23115e-05
2	1	0	1	1	23.9565	-0.595494	-0.595821	0.0188603	2	-0.0019461	39	10.7908	-1.12374e-05
2	1	0	1	1	24.4563	-0.645485	-0.645835	0.0158992	2	-0.00193779	39	11.2906	-1.02682e-05
2	1	0	1	1	24.9563	-0.695476	-0.695828	0.0127795	2	-0.00193099	39	11.7906	-8.89232e-06
2	1	0	1	1	25.4563	-0.745467	-0.745796	0.00921932	2	-0.00192587	39	12.2906	-6.87573e-06
2	1	0	1	1	25.9561	-0.795459	-0.795779	0.00393353	2	-0.00192296	39	12.7904	-3.13022e-06
2	0	0	1	1	26.4561	-0.84545	-0.845804	-0.00392071	2	-0.0019233	39	0.28	3.31615e-06
2	0	0	1	1	26.9559	-0.895441	-0.895775	-0.0112029	2	-0.0019276	39	0.7798	1.00353e-05
2	0	0	1	1	27.4559	-0.945432	-0.945755	-0.0176619	2	-0.00193511	39	1.2798	1.67038e-05
2	0	0	1	1	27.9557	-0.995423	-0.995771	-0.0331344	2	-0.0019476	39	1.7796	3.29943e-05
2	0	0	1	1	28.4557	-1.04541	-1.04577	-0.0622241	2	-0.00197139	39	2.2796	6.50719e-05
2	0	0	1	1	28.9555	-1.09541	-1.09573	-0.0878373	2	-0.00200968	39	2.7794	9.62455e-05
2	0	0	1	1	29.4555	-1.1454	-1.14573	-0.127572	2	-0.00206469	39	3.2794	0.000146162
2	0	0	1	1	29.9555	-1.19539	-1.19571	-0.143316	2	-0.00213233	39	3.7794	0.000171365
2	0	0	1	1	30.4553	-1.24538	-1.24574	-0.209468	2	-0.00221791	39	4.2792	0.000260943
2	0	0	1	1	30.9553	-1.29537	-1.2957	-0.404479	2	-0.00236141	39	4.7792	0.000524083
2	0	0	1	1	31.4551	-1.34536	-1.34571	-1.17915	2	-0.002732	39	5.279	0.00158679
2	0	0	1	0	31.9375	-1.30647	-1.30678	-0.542475	3	-0.00317245	39	5.7614	0.000708893
2	0	0	1	0	32.4375	-1.25648	-1.25679	-0.201292	3	-0.00334087	39	6.2614	0.000252981
2	0	0	1	0	32.9373	-1.20649	-1.20684	-0.09339	3	-0.00340934	39	6.7612	0.000112706
2	0	0	1	0	33.4373	-1.1565	-1.15683	-0.0428481	3	-0.00344181	39	7.2612	4.95681e-05
2	0	0	1	0	33.9373	-1.1065	-1.10682	-0.00816344	3	-0.0034535	39	7.7612	9.03545e-06
2	1	0	1	0	34.4371	-1.05651	-1.05684	0.0174607	3	-0.00345052	39	0.36	-1.84531e-05
2	1	0	1	0	34.9371	-1.00652	-1.00685	0.0527291	3	-0.00343228	39	0.86	-5.30903e-05
2	1	0	1	0	35.4369	-0.95653	-0.956871	0.0762833	3	-0.00340148	39	1.3598	-7.29933e-05
2	1	0	1	0	35.9369	-0.906539	-0.906854	0.153267	3	-0.00334548	39	1.8598	-0.000138991
2	1	0	1	0	36.4367	-0.856548	-0.856888	0.234179	3	-0.00324617	39	2.3596	-0.000200665
2	1	0	1	0	36.9367	-0.806557	-0.806911	0.233154	3	-0.00312574	39	2.8596	-0.000188135
2	1	0	1	0	37.4367	-0.756565	-0.756907	0.193244	3	-0.00301827	39	3.3596	-0.000146268
2	1	0	1	0	37.9365	-0.706574	-0.706931	0.159221	3	-0.00293034	39	3.8594	-0.000112558
2	1	0	1	0	38.4365	-0.656583	-0.656915	0.138272	3	-0.00285595	39	4.3594	-9.08331e-05
2	1	0	1	0	38.9363	-0.606592	-0.606916	0.124645	3	-0.00279004	39	4.8592	-7.5649e-05
2	1	0	1	0	39.4363	-0.556601	-0.556966	0.113217	3	-0.0027302	39	5.3592	-6.30582e-05
2	1	0	1	0	39.9361	-0.506609	-0.506959	0.103106	3	-0.00267585	39	5.859	-5.22705e-05
2	1	0	1	0	40.4361	-0.456618	-0.456955	0.0949022	3	-0.00262603	39	6.359	-4.33661e-05
2	1	0	1	0	40.9359	-0.406627	-0.40696	0.088005	3	-0.00258	39	6.8588	-3.58145e-05
2	1	0	1	0	41.4359	-0.356636	-0.35696	0.0821188	3	-0.0025371	39	7.3588	-2.93131e-05
2	1	0	1	0	41.9359	-0.306645	-0.306982	0.0770928	3	-0.00249693	39	7.8588	-2.36661e-05
2	1	0	1	0	42.4183	-0.341538	-0.341862	0.0538615	3	-0.00246688	39	8.3412	-1.84132e-05
2	1	0	1	0	42.9183	-0.39153	-0.391847	0.0445413	3	-0.00244284	39	8.8412	-1.74534e-05
2	1	0	1	0	43.4181	-0.441521	-0.441835	0.0382479	3	-0.00242257	39	9.341	-1.68992e-05
2	1	0	1	0	43.9181	-0.491512	-0.49183	0.0335228	3	-0.00240496	39	9.841	-1.64876e-05
2	1	0	1	0	44.4179	-0.541503	-0.541839	0.0293423	3	-0.00238957	39	10.3408	-1.58988e-05
2	1	0	1	0	44.9179	-0.591495	-0.591792	0.0252938	3	-0.00237622	39	10.8408	-1.49686e-05
2	1	0	1	0	45.4177	-0.641486	-0.641815	0.0223397	3	-0.00236454	39	11.3406	-1.4338e-05
2	1	0	1	0	45.9177	-0.691477	-0.691776	0.0190867	3	-0.00235445	39	11.8406	-1.32037e-05
2	1	0	1	0	46.4177	-0.741468	-0.741781	0.0153807	3	-0.0023461	39	12.3406	-1.14091e-05
2	1	0	1	0	46.9175	-0.791459	-0.791782	0.00934804	3	-0.00234011	39	12.8404	-7.40161e-06
2	1	0	1	0	47.4175	-0.84145	-0.841766	0.000288863	3	-0.0023378	39	13.3404	-2.43155e-07
2	0	0	1	0	47.9173	-0.891442	-0.89175	-0.00922643	3	-0.0023403	39	0.4898	8.22767e-06
2	0	0	1	0	48.4173	-0.941433	-0.941759	-0.0164209	3	-0.0023469	39	0.9898	1.54645e-05
2	0	0	1	0	48.9171	-0.991424	-0.99173	-0.0239578	3	-0.00235707	39	1.4896	2.37597e-05
2	0	0	1	0	49.4171	-1.04142	-1.04173	-0.0365685	3	-0.00237218	39	1.9896	3.80946e-05
2	0	0	1	0	49.9171	-1.09141	-1.09172	-0.0510402	3	-0.00239402	39	2.4896	5.57214e-05
2	0	0	1	0	50.4169	-1.1414	-1.14172	-0.064716	3	-0.0024236	39	2.9894	7.38873e-05
2	0	0	1	0	50.9169	-1.19139	-1.1917	-0.0705221	3	-0.00245726	39	3.4894	8.40414e-05
2	0	0	1	0	51.4167	-1.24138	-1.24171	-0.0950397	3	-0.00249752	39	3.9892	0.000118012
2	0	0	1	0	51.9167	-1.29137	-1.29169	-0.168015	3	-0.00255985	39	4.4892	0.000217023
2	0	0	1	0	52.4165	-1.34136	-1.34169	-0.485503	3	-0.00269962	39	4.989	0.000651392
2	0	0	1	1	52.8989	-1.31047	-1.3108	-0.256845	3	-0.00290879	39	5.4714	0.000336672
2	0	0	1	1	53.3989	-1.26048	-1.2608	-0.0953639	3	-0.00298727	39	5.9714	0.000120235
2	0	0	1	1	53.8989	-1.21049	-1.21081	-0.0435456	3	-0.00301894	39	6.4714	5.27253e-05
2	0	0	1	1	54.3987	-1.16049	-1.16082	-0.0183658	3	-0.00303313	39	6.9712	2.13194e-05
2	1	0	1	1	54.8987	-1.1105	-1.11083	-0.000555776	3	-0.0030368	39	0.02	6.1737e-07
2	1	0	1	1	55.3985	-1.06051	-1.06083	0.0128255	3	-0.00303292	39	0.5198	-1.36057e-05
2	1	0	1	1	55.8985	-1.01052	-1.01085	0.0273773	3	-0.00302184	39	1.0198	-2.76743e-05
2	1	0	1	1	56.3983	-0.96053	-0.960868	0.0445654	3	-0.00300436	39	1.5196	-4.28215e-05
2	1	0	1	1	56.8983	-0.910538	-0.910869	0.0915172	3	-0.00297041	39	2.0196	-8.33602e-05
2	1	0	1	1	57.3981	-0.860547	-0.860884	0.139958	3	-0.00291132	39	2.5194	-0.000120488
2	1	0	1	1	57.8981	-0.810556	-0.810887	0.155803	3	-0.00283452	39	3.0194	-0.000126338
2	1	0	1	1	58.3981	-0.760565	-0.760905	0.130921	3	-0.00276144	39	3.5194	-9.96185e-05
2	1	0	1	1	58.8979	-0.710573	-0.710929	0.106376	3	-0.00270187	39	4.0192	-7.56256e-05
2	1	0	1	1	59.3878	-0.661532	-0.661873	0.0932987	3	-0.00265322	39	4.5091	-6.17519e-05