File: Fig 3/Fig 3_RRDE-np-Fe2O3_10mvs_ring.mpt
mode	ox/red	error	control changes	counter inc.	time/s	control/V	Ewe/V	<I>/mA	cycle number	(Q-Qo)/C	I Range	step time/s	P/W
2	0	0	1	0	0.000000000000000E+000	-0.299976	-0.299944	-0.0754633	1	0.0000000E+000	39	0.000000000000000E+000	2.26348e-05
2	0	0	1	0	0.155	-0.301526	-0.301468	-0.00326055	1	-1.88831e-06	39	0.1	9.82953e-07
2	0	0	1	0	0.355	-0.303526	-0.303465	-0.00108608	1	-2.42592e-06	39	0.3	3.29588e-07
2	0	0	1	0	0.555	-0.305525	-0.305456	-0.000336023	1	-2.68837e-06	39	0.5	1.0264e-07
2	0	0	1	0	0.755	-0.307525	-0.307451	0.000173558	1	-2.81798e-06	39	0.7	-5.33606e-08
2	0	0	1	0	0.955	-0.309525	-0.309453	0.000197914	1	-2.89278e-06	39	0.9	-6.1245e-08
2	0	0	1	0	1.1549	-0.311525	-0.311468	0.000472044	1	-2.94878e-06	39	1.0999	-1.47027e-07
2	1	0	0	0	1.3548	-0.313524	-0.313451	0.000384294	1	-2.97622e-06	39	1.2998	-1.20457e-07
2	1	0	0	0	1.5548	-0.315524	-0.315463	0.000623819	1	-3.00628e-06	39	1.4998	-1.96792e-07
2	1	0	0	0	1.7548	-0.317523	-0.317464	0.000747384	1	-2.99475e-06	39	0.1	-2.37267e-07
2	1	0	0	0	1.9548	-0.319523	-0.319438	0.00072108	1	-2.96045e-06	39	0.3	-2.3034e-07
2	1	0	0	0	2.1548	-0.321522	-0.321468	0.000806802	1	-2.93905e-06	39	0.5	-2.59361e-07
2	1	0	1	0	2.3546	-0.323522	-0.323472	0.000670893	1	-2.91154e-06	39	0.6998	-2.17015e-07
2	1	0	1	0	2.5546	-0.325522	-0.325462	0.000841149	1	-2.87269e-06	39	0.8998	-2.73762e-07
2	1	0	1	0	2.7546	-0.327522	-0.327462	0.000844887	1	-2.83052e-06	39	1.0998	-2.76669e-07
2	1	0	1	0	2.9546	-0.329521	-0.329453	0.000783063	1	-2.78493e-06	39	1.2998	-2.57982e-07
2	1	0	1	0	3.1546	-0.331521	-0.331453	0.000795445	1	-2.73827e-06	39	1.4998	-2.63653e-07
2	1	0	1	0	3.3546	-0.33352	-0.333438	0.000903293	1	-2.69894e-06	39	1.6998	-3.01192e-07
2	0	0	0	0	3.5544	-0.33552	-0.335445	0.000865914	1	-2.6505e-06	39	1.8996	-2.90466e-07
2	0	0	0	0	3.7544	-0.33752	-0.337462	0.000726031	1	-2.60279e-06	39	2.0996	-2.45008e-07
2	1	0	0	0	3.9544	-0.339519	-0.339436	0.000985351	1	-2.55964e-06	39	2.2996	-3.34464e-07
2	0	0	0	0	4.1544	-0.341519	-0.341427	0.000789211	1	-2.49526e-06	39	2.4996	-2.69458e-07
2	0	0	0	0	4.3544	-0.343519	-0.343427	0.000725807	1	-2.46323e-06	39	2.6996	-2.49262e-07
2	1	0	0	0	4.5544	-0.345518	-0.345442	0.000829611	1	-2.42237e-06	39	2.8996	-2.86582e-07
2	1	0	1	0	4.7542	-0.347518	-0.347448	0.000872394	1	-2.37998e-06	39	3.0994	-3.03112e-07
2	1	0	1	0	4.9542	-0.349518	-0.349445	0.000821393	1	-2.33183e-06	39	3.2994	-2.87032e-07
2	0	0	1	0	5.1542	-0.351517	-0.35146	0.000852043	1	-2.30328e-06	39	3.4994	-2.99459e-07
2	0	0	1	0	5.3542	-0.353517	-0.353451	0.000909196	1	-2.26139e-06	39	3.6994	-3.21357e-07
2	1	0	1	0	5.5542	-0.355517	-0.355459	0.000921389	1	-2.20133e-06	39	3.8994	-3.27516e-07
2	1	0	1	0	5.7542	-0.357516	-0.357439	0.00075558	1	-2.17622e-06	39	4.0994	-2.70074e-07
2	1	0	0	0	5.954	-0.359516	-0.359437	0.000889931	1	-2.14812e-06	39	4.2992	-3.19875e-07
2	1	0	0	0	6.154	-0.361516	-0.361444	0.000890867	1	-2.10677e-06	39	4.4992	-3.21998e-07
2	1	0	0	0	6.354	-0.363515	-0.363433	0.000835491	1	-2.0658e-06	39	4.6992	-3.03645e-07
2	1	0	0	0	6.554	-0.365515	-0.365436	0.000835165	1	-2.01229e-06	39	4.8992	-3.05199e-07
2	1	0	0	0	6.754	-0.367515	-0.367426	0.000829096	1	-1.95686e-06	39	5.0992	-3.04631e-07
2	1	0	0	0	6.954	-0.369514	-0.369449	0.000834444	1	-1.91721e-06	39	5.2992	-3.08285e-07
2	1	0	1	0	7.1538	-0.371514	-0.371468	0.000887047	1	-1.86553e-06	39	5.499	-3.2951e-07
2	1	0	1	0	7.3538	-0.373514	-0.373451	0.000748884	1	-1.84181e-06	39	5.699	-2.79671e-07
2	1	0	1	0	7.5538	-0.375513	-0.375451	0.000795142	1	-1.82055e-06	39	5.899	-2.98537e-07
2	1	0	1	0	7.7538	-0.377513	-0.377444	0.000768417	1	-1.78874e-06	39	6.099	-2.90034e-07
2	1	0	1	0	7.9538	-0.379513	-0.379437	0.000793906	1	-1.76459e-06	39	6.299	-3.01237e-07
2	1	0	1	0	8.1538	-0.381512	-0.381463	0.000777838	1	-1.72116e-06	39	6.499	-2.96717e-07
2	1	0	0	0	8.3536	-0.383512	-0.383464	0.000728009	1	-1.68768e-06	39	6.6988	-2.79165e-07
2	1	0	0	0	8.5536	-0.385512	-0.385446	0.000961639	1	-1.62793e-06	39	6.8988	-3.7066e-07
2	1	0	0	0	8.7536	-0.387511	-0.387433	0.000796289	1	-1.56716e-06	39	7.0988	-3.08508e-07
2	1	0	0	0	8.9536	-0.389511	-0.389451	0.000893867	1	-1.51761e-06	39	7.2988	-3.48118e-07
2	1	0	0	0	9.1536	-0.391511	-0.391454	0.00093355	1	-1.47379e-06	39	7.4988	-3.65442e-07
2	1	0	0	0	9.3536	-0.39351	-0.393443	0.000945649	1	-1.41134e-06	39	7.6988	-3.72059e-07
2	1	0	1	0	9.5534	-0.39551	-0.395463	0.00104368	1	-1.35573e-06	39	7.8986	-4.12735e-07
2	1	0	1	0	9.7534	-0.39751	-0.397439	0.000896064	1	-1.3048e-06	39	8.0986	-3.56131e-07
2	1	0	1	0	9.9534	-0.399509	-0.399454	0.00100035	1	-1.25534e-06	39	8.2986	-3.99594e-07
2	1	0	1	0	10.1534	-0.401509	-0.40145	0.000964932	1	-1.20824e-06	39	8.4986	-3.87372e-07
2	1	0	1	0	10.3534	-0.403509	-0.403453	0.000889022	1	-1.15956e-06	39	8.6986	-3.58679e-07
2	1	0	1	0	10.5533	-0.405507	-0.40546	0.000947137	1	-1.10891e-06	39	8.8985	-3.84026e-07
2	1	0	0	0	10.7532	-0.407508	-0.407436	0.000924756	1	-1.06712e-06	39	9.0984	-3.76779e-07
2	1	0	0	0	10.9532	-0.409508	-0.40946	0.000914522	1	-1.02283e-06	39	9.2984	-3.7446e-07
2	1	0	0	0	11.1532	-0.411507	-0.411461	0.000868854	1	-9.72001e-07	39	9.4984	-3.575e-07
2	1	0	0	0	11.3532	-0.413507	-0.41347	0.000888239	1	-9.32519e-07	39	9.6984	-3.6726e-07
2	1	0	0	0	11.5532	-0.415507	-0.415463	0.000798297	1	-9.03065e-07	39	9.8984	-3.31663e-07
2	1	0	1	0	11.7531	-0.417505	-0.417443	0.000869368	1	-8.6362e-07	39	10.0983	-3.62912e-07
2	1	0	1	0	11.953	-0.419506	-0.419453	0.000820648	1	-8.272e-07	39	10.2982	-3.44223e-07
2	1	0	1	0	12.153	-0.421506	-0.421465	0.000829981	1	-7.86718e-07	39	10.4982	-3.49808e-07
2	1	0	1	0	12.353	-0.423505	-0.423474	0.000827462	1	-7.48004e-07	39	10.6982	-3.50409e-07
2	1	0	1	0	12.553	-0.425505	-0.425464	0.000642095	1	-7.28541e-07	39	10.8982	-2.73188e-07
2	1	0	1	0	12.753	-0.427505	-0.427454	0.000824738	1	-6.92681e-07	39	11.0982	-3.52538e-07
2	1	0	1	0	12.89	-0.428954	-0.428896	-0.0024041	1	-6.79362e-07	39	11.2352	1.03111e-06