File: Fig 6/Fig 6_prec-Fe3O4.mpt
mode	ox/red	error	control changes	counter inc.	time/s	control/V	Ewe/V	<I>/mA	cycle number	(Q-Qo)/C	I Range	step time/s	P/W
2	1	1	1	0	0.000000000000000E+000	-0.300317	-0.300301	0.0781771	1	0.0000000E+000	41	0.000000000000000E+000	-2.34767e-05
2	1	0	0	0	3.589	-0.318261	-0.318264	0.00326759	1	2.90248e-05	42	3.449	-1.03996e-06
2	1	0	1	0	7.188	-0.336256	-0.336261	0.00211011	1	3.81793e-05	42	7.048	-7.09549e-07
2	1	0	1	0	10.7869	-0.354251	-0.35426	0.00161782	1	4.46478e-05	42	10.6469	-5.7313e-07
2	1	0	0	0	14.3858	-0.372246	-0.372236	0.00131271	1	4.97341e-05	42	14.2458	-4.88639e-07
2	1	0	1	0	17.9848	-0.39024	-0.39022	0.00109042	1	5.3912e-05	42	17.8448	-4.25504e-07
2	1	0	0	0	21.5838	-0.408235	-0.408214	0.000914499	1	5.73994e-05	42	21.4438	-3.73311e-07
2	1	0	1	0	25.1827	-0.42623	-0.426221	0.000768944	1	6.0301e-05	42	25.0427	-3.2774e-07
2	1	0	1	0	28.7816	-0.444225	-0.444186	0.000635048	1	6.26829e-05	42	28.6416	-2.82079e-07
2	1	0	0	0	32.3806	-0.462219	-0.4622	0.000518251	1	6.46207e-05	42	32.2406	-2.39536e-07
2	1	0	1	0	35.9795	-0.480214	-0.480217	0.000425077	1	6.61611e-05	42	35.8395	-2.04129e-07
2	1	0	1	0	39.5784	-0.498209	-0.498195	0.00032499	1	6.73403e-05	42	39.4384	-1.61908e-07
2	1	0	0	0	43.1774	-0.516204	-0.516193	0.000219831	1	6.81673e-05	42	43.0374	-1.13475e-07
2	1	0	1	0	46.7764	-0.534198	-0.534196	0.000132919	1	6.86402e-05	42	46.6364	-7.10046e-08
2	1	0	1	0	50.3753	-0.552193	-0.5522	1.6629e-05	1	6.87537e-05	42	0.3999	-9.18255e-09
2	0	0	0	0	53.9742	-0.570188	-0.570152	-7.66599e-05	1	6.84671e-05	42	3.9988	4.37078e-08
2	0	0	1	0	57.5732	-0.588182	-0.58818	-0.000212867	1	6.7737e-05	42	7.5978	1.25204e-07
2	0	0	0	0	61.1722	-0.606177	-0.60616	-0.000354128	1	6.65084e-05	42	11.1968	2.14658e-07
2	0	0	1	0	64.7711	-0.624172	-0.624159	-0.000519852	1	6.47122e-05	42	14.7957	3.2447e-07
2	0	0	1	0	68.37	-0.642167	-0.642135	-0.000654453	1	6.23629e-05	42	18.3946	4.20247e-07
2	0	0	0	0	71.969	-0.660161	-0.66013	-0.000817884	1	5.94501e-05	42	21.9936	5.3991e-07
2	0	0	1	0	75.5679	-0.678156	-0.678123	-0.00102321	1	5.58626e-05	42	25.5925	6.93866e-07
2	0	0	1	0	79.1668	-0.696151	-0.69611	-0.00129246	1	5.14073e-05	42	29.1914	8.99694e-07
2	0	0	0	0	82.7658	-0.714146	-0.714095	-0.00161636	1	4.58451e-05	42	32.7904	1.15423e-06
2	0	0	1	0	86.3648	-0.73214	-0.732129	-0.00279364	1	3.80791e-05	42	36.3894	2.0453e-06
2	0	0	1	0	89.9637	-0.750135	-0.750092	-0.0038728	1	2.52328e-05	42	39.9883	2.90496e-06
2	0	0	0	0	93.5626	-0.76813	-0.76809	-0.00441544	1	9.90424e-06	42	43.5872	3.39145e-06
2	0	0	1	0	97.1616	-0.786125	-0.786107	-0.00542195	1	-8.21535e-06	42	47.1862	4.26223e-06
2	0	0	0	0	100.761	-0.804119	-0.804066	-0.00620438	1	-2.96256e-05	42	50.7852	4.98873e-06
2	0	0	1	0	104.359	-0.822114	-0.822094	-0.00708744	1	-5.39808e-05	42	54.3841	5.82654e-06
2	0	0	1	0	107.958	-0.840109	-0.840096	-0.00820127	1	-8.20481e-05	42	57.983	6.88985e-06
2	0	0	0	0	111.557	-0.858103	-0.858094	-0.0093848	1	-0.000114345	42	61.582	8.05304e-06
2	0	0	1	0	115.176	-0.876198	-0.876142	-0.010452	1	-0.0001509	41	65.201	9.15743e-06
2	0	0	1	0	118.775	-0.894193	-0.894156	-0.011397	1	-0.000191214	41	68.7998	1.01907e-05
2	0	0	0	0	122.374	-0.912188	-0.912152	-0.0121753	1	-0.000234431	41	72.3988	1.11057e-05
2	0	0	1	0	125.973	-0.930182	-0.930136	-0.0130566	1	-0.000280649	41	75.9978	1.21444e-05
2	0	0	1	0	129.572	-0.948177	-0.948133	-0.0141273	1	-0.000330349	41	79.5967	1.33946e-05
2	0	0	0	0	133.171	-0.966172	-0.966128	-0.0156797	1	-0.000384718	41	83.1956	1.51486e-05
2	0	0	1	0	136.77	-0.984167	-0.9841	-0.017898	1	-0.00044582	41	86.7946	1.76134e-05
2	0	0	0	0	140.369	-1.00216	-1.00209	-0.0206609	1	-0.000516032	41	90.3936	2.07041e-05
2	0	0	1	0	143.968	-1.02016	-1.02008	-0.0236542	1	-0.000596764	41	93.9925	2.41292e-05
2	0	0	1	0	147.567	-1.03815	-1.0381	-0.0260623	1	-0.000687417	41	97.5914	2.70553e-05
2	0	0	0	0	151.166	-1.05615	-1.05607	-0.0267614	1	-0.000783921	41	101.19	2.82619e-05
2	0	0	1	0	154.765	-1.07414	-1.07407	-0.0246247	1	-0.000877935	41	104.789	2.64486e-05
2	0	0	1	0	158.364	-1.09214	-1.09206	-0.0198677	1	-0.000958998	41	108.388	2.16968e-05
2	0	0	0	0	161.963	-1.11013	-1.11005	-0.0150498	1	-0.00102157	41	111.987	1.67061e-05
2	0	0	1	0	165.562	-1.12812	-1.12806	-0.0125587	1	-0.00107086	41	115.586	1.4167e-05
2	0	0	0	0	169.161	-1.14612	-1.14607	-0.0119222	1	-0.0011148	41	119.185	1.36637e-05
2	0	0	1	0	172.759	-1.16411	-1.16406	-0.0124256	1	-0.0011585	41	122.784	1.44641e-05
2	0	0	1	0	176.358	-1.18211	-1.18204	-0.0157434	1	-0.00120839	41	126.383	1.86094e-05
2	0	0	0	0	179.957	-1.2001	-1.20004	-0.0256336	1	-0.00128016	41	129.982	3.07612e-05
2	0	0	1	0	183.556	-1.2181	-1.21805	-0.0412489	1	-0.0014009	41	133.581	5.02433e-05
2	0	0	1	0	187.155	-1.23609	-1.23604	-0.0490799	1	-0.00156751	41	137.18	6.06645e-05
2	0	0	0	0	190.754	-1.25409	-1.25401	-0.0499626	1	-0.00174647	41	140.779	6.26538e-05
2	0	0	1	0	194.353	-1.27208	-1.272	-0.0538674	1	-0.00193184	41	144.378	6.85196e-05
2	0	0	1	0	197.952	-1.29008	-1.28998	-0.066766	1	-0.00214583	41	147.977	8.61267e-05
2	0	0	0	0	201.551	-1.30807	-1.30798	-0.095862	1	-0.00243266	41	151.576	0.000125386
2	0	0	1	0	205.17	-1.32617	-1.32609	-0.151138	1	-0.00287115	40	155.195	0.000200423
2	0	0	1	0	208.769	-1.34416	-1.34408	-0.243597	1	-0.00356939	40	158.793	0.000327414
2	0	0	1	1	212.048	-1.33946	-1.33939	-0.235987	2	-0.00442208	40	162.073	0.000316077
2	0	0	0	1	215.647	-1.32147	-1.3214	-0.171918	2	-0.0051464	40	165.672	0.000227173
2	0	0	1	1	219.246	-1.30347	-1.30339	-0.12546	2	-0.00567453	40	169.271	0.000163523
2	0	0	1	1	222.845	-1.28548	-1.2854	-0.0953276	2	-0.00606774	40	172.87	0.000122534
2	0	0	0	1	226.444	-1.26748	-1.26742	-0.0746906	2	-0.00637057	40	176.469	9.46646e-05
2	0	0	1	1	230.043	-1.24949	-1.24944	-0.060455	2	-0.00661201	40	180.068	7.55346e-05
2	0	0	1	1	233.642	-1.23149	-1.23143	-0.0498241	2	-0.00680924	40	183.667	6.13549e-05
2	0	0	0	1	237.261	-1.2134	-1.21332	-0.0415796	2	-0.00697392	41	187.286	5.04493e-05
2	0	0	1	1	240.86	-1.1954	-1.19535	-0.0347132	2	-0.00711052	41	190.885	4.14946e-05
2	0	0	1	1	244.459	-1.17741	-1.17736	-0.0286546	2	-0.007224	41	194.483	3.37369e-05
2	0	0	0	1	248.058	-1.15942	-1.15935	-0.0232059	2	-0.00731679	41	198.082	2.69038e-05
2	0	0	1	1	251.657	-1.14142	-1.14138	-0.0185437	2	-0.00739132	41	201.681	2.11654e-05
2	0	0	0	1	255.256	-1.12343	-1.12336	-0.0147293	2	-0.00745069	41	205.28	1.65463e-05
2	0	0	1	1	258.855	-1.10543	-1.10537	-0.0111792	2	-0.00749699	41	208.879	1.23572e-05
2	0	0	1	1	262.454	-1.08744	-1.08735	-0.00745108	2	-0.00753019	41	212.478	8.10195e-06
2	0	0	0	1	266.073	-1.06934	-1.06928	-0.00430193	2	-0.00755067	42	216.097	4.59998e-06
2	0	0	1	1	269.672	-1.05135	-1.05128	-0.00255503	2	-0.00756227	42	219.696	2.68606e-06
2	0	0	1	1	273.27	-1.03335	-1.03328	-0.00151264	2	-0.00756913	42	223.295	1.56299e-06
2	0	0	0	1	276.869	-1.01536	-1.01528	-0.000844606	2	-0.00757295	42	226.894	8.57509e-07
2	0	0	1	1	280.468	-0.997363	-0.997319	-0.00012554	2	-0.00757437	42	230.493	1.25203e-07
2	1	0	1	1	284.067	-0.979368	-0.9793	0.00101271	2	-0.00757263	42	3.399	-9.91747e-07
2	1	0	0	1	287.666	-0.961373	-0.961322	0.00387291	2	-0.00756426	42	6.9979	-3.72311e-06
2	1	0	1	1	291.265	-0.943379	-0.943343	0.0097206	2	-0.00754017	42	10.5969	-9.16985e-06
2	1	0	0	1	294.884	-0.925284	-0.925217	0.0166667	2	-0.00749188	41	14.2159	-1.54203e-05
2	1	0	1	1	298.483	-0.907289	-0.907227	0.0233421	2	-0.0074195	41	17.8148	-2.11766e-05
2	1	0	1	1	302.082	-0.889294	-0.889235	0.030666	2	-0.00732182	41	21.4137	-2.72693e-05
2	1	0	0	1	305.681	-0.8713	-0.871247	0.0358645	2	-0.00719992	41	25.0127	-3.12468e-05
2	1	0	1	1	309.28	-0.853305	-0.853279	0.0349537	2	-0.00707023	41	28.6117	-2.98252e-05
2	1	0	1	1	312.879	-0.83531	-0.835278	0.0302023	2	-0.00695193	41	32.2106	-2.52273e-05
2	1	0	0	1	316.478	-0.817315	-0.817271	0.0247742	2	-0.00685275	41	35.8095	-2.02472e-05
2	1	0	1	1	320.077	-0.799321	-0.79927	0.020101	2	-0.00677195	41	39.4085	-1.60661e-05
2	1	0	0	1	323.676	-0.781326	-0.781275	0.0164801	2	-0.00670617	41	43.0075	-1.28755e-05
2	1	0	1	1	327.275	-0.763331	-0.763287	0.0141455	2	-0.00665121	41	46.6064	-1.07971e-05
2	1	0	1	1	330.874	-0.745336	-0.745294	0.0130143	2	-0.00660245	41	50.2053	-9.69945e-06
2	1	0	0	1	334.473	-0.727342	-0.727301	0.0134531	2	-0.00655499	41	53.8043	-9.78443e-06
2	1	0	1	1	338.071	-0.709347	-0.709301	0.0159901	2	-0.00650228	41	57.4032	-1.13418e-05
2	1	0	1	1	341.67	-0.691352	-0.691319	0.0116524	2	-0.00644666	41	61.0021	-8.05554e-06
2	1	0	0	1	345.269	-0.673358	-0.673301	0.00710984	2	-0.00641427	41	64.6011	-4.78707e-06
2	1	0	1	1	348.868	-0.655363	-0.655327	0.00597509	2	-0.00639072	41	68.2001	-3.91564e-06
2	1	0	1	1	352.467	-0.637368	-0.637338	0.00536125	2	-0.00637021	41	71.799	-3.41693e-06
2	1	0	0	1	356.066	-0.619373	-0.61934	0.00497187	2	-0.00635145	41	75.3979	-3.07927e-06
2	1	0	1	1	359.665	-0.601379	-0.60134	0.00464898	2	-0.00633396	41	78.9969	-2.79562e-06
2	1	0	1	1	363.304	-0.583184	-0.583157	0.00444793	2	-0.00631728	42	82.6358	-2.59384e-06
2	1	0	0	1	366.903	-0.565189	-0.565153	0.00422146	2	-0.00630155	42	86.2347	-2.38577e-06
2	1	0	1	1	370.502	-0.547194	-0.547178	0.00395495	2	-0.00628669	42	89.8337	-2.16406e-06
2	1	0	0	1	374.101	-0.5292	-0.529196	0.00379838	2	-0.00627263	42	93.4327	-2.01009e-06
2	1	0	1	1	377.7	-0.511205	-0.511172	0.0036333	2	-0.00625918	42	97.0316	-1.85724e-06
2	1	0	1	1	381.299	-0.49321	-0.493163	0.00346938	2	-0.00624628	42	100.63	-1.71097e-06
2	1	0	0	1	384.898	-0.475216	-0.475164	0.0033363	2	-0.00623391	42	104.229	-1.58529e-06
2	1	0	1	1	388.497	-0.457221	-0.457198	0.00323286	2	-0.00622195	42	107.828	-1.47806e-06
2	1	0	1	1	392.096	-0.439226	-0.439181	0.00314079	2	-0.00621037	42	111.427	-1.37937e-06
2	1	0	0	1	395.695	-0.421231	-0.42118	0.00305071	2	-0.00619911	42	115.026	-1.2849e-06
2	1	0	1	1	398.975	-0.404786	-0.404738	0.00309237	2	-0.00618909	42	118.306	-1.2516e-06