File: Fig 6/Fig 6_bf-Fe3O4.mpt
mode	ox/red	error	control changes	counter inc.	time/s	control/V	Ewe/V	<I>/mA	cycle number	(Q-Qo)/C	I Range	step time/s	P/W
2	1	1	1	0	0.000000000000000E+000	-0.300321	-0.300436	0.00779488	1	0.0000000E+000	41	0.000000000000000E+000	-2.34186e-06
2	1	0	1	0	3.7289	-0.318965	-0.319058	0.000265186	1	2.85458e-06	42	3.6089	-8.46098e-08
2	1	0	0	0	7.5278	-0.33796	-0.33805	5.88647e-05	1	3.08403e-06	42	0.4	-1.98992e-08
2	0	0	0	0	11.3266	-0.356954	-0.357067	-3.94739e-05	1	2.75887e-06	42	4.1988	1.40948e-08
2	0	0	0	0	15.1254	-0.375948	-0.376052	-0.000126234	1	2.12172e-06	42	7.9976	4.74705e-08
2	0	0	0	0	18.9242	-0.394942	-0.395026	-0.000166809	1	1.23727e-06	42	11.7964	6.58939e-08
2	0	0	1	0	22.7231	-0.413936	-0.414023	-0.000225945	1	1.43588e-07	42	15.5953	9.35463e-08
2	0	0	1	0	26.522	-0.432931	-0.433022	-0.000284421	1	-1.16841e-06	42	19.3942	1.2316e-07
2	0	0	1	0	30.3208	-0.451925	-0.452011	-0.000323892	1	-2.69725e-06	42	23.193	1.46403e-07
2	0	0	1	0	34.1196	-0.470919	-0.470994	-0.000390211	1	-4.43208e-06	42	26.9918	1.83787e-07
2	0	0	1	0	37.9184	-0.489913	-0.48999	-0.00045252	1	-6.40313e-06	42	30.7906	2.21731e-07
2	0	0	1	0	41.7173	-0.508908	-0.508964	-0.000515672	1	-8.61444e-06	42	34.5895	2.62459e-07
2	0	0	1	0	45.5161	-0.527901	-0.527985	-0.000594768	1	-1.1144e-05	42	38.3883	3.14029e-07
2	0	0	0	0	49.315	-0.546896	-0.546949	-0.000654503	1	-1.39295e-05	42	42.1872	3.57979e-07
2	0	0	0	0	53.1138	-0.56589	-0.565941	-0.000715692	1	-1.69811e-05	42	45.986	4.05039e-07
2	0	0	0	0	56.9126	-0.584884	-0.584949	-0.00076166	1	-2.02381e-05	42	49.7848	4.45532e-07
2	0	0	0	0	60.7114	-0.603878	-0.603975	-0.000829586	1	-2.36933e-05	42	53.5836	5.01049e-07
2	0	0	1	0	64.5103	-0.622873	-0.622962	-0.000905305	1	-2.7473e-05	42	57.3825	5.63971e-07
2	0	0	1	0	68.3092	-0.641867	-0.641965	-0.000963643	1	-3.1519e-05	42	61.1814	6.18625e-07
2	0	0	1	0	72.108	-0.660861	-0.660955	-0.00106392	1	-3.58173e-05	42	64.9802	7.03201e-07
2	0	0	1	0	75.9068	-0.679855	-0.679939	-0.00116092	1	-4.05568e-05	42	68.779	7.89353e-07
2	0	0	1	0	79.7056	-0.698849	-0.698919	-0.00126399	1	-4.56802e-05	42	72.5778	8.83426e-07
2	0	0	1	0	83.5045	-0.717844	-0.717906	-0.00136877	1	-5.11929e-05	42	76.3767	9.82645e-07
2	0	0	1	0	87.3033	-0.736837	-0.736914	-0.00148185	1	-5.71663e-05	42	80.1755	1.09199e-06
2	0	0	0	0	91.1022	-0.755832	-0.755904	-0.00165246	1	-6.36923e-05	42	83.9744	1.2491e-06
2	0	0	0	0	94.901	-0.774826	-0.774903	-0.00184738	1	-7.10054e-05	42	87.7732	1.43154e-06
2	0	0	0	0	98.6998	-0.79382	-0.79388	-0.00195503	1	-7.88089e-05	42	91.572	1.55206e-06
2	0	0	0	0	102.499	-0.812814	-0.812892	-0.00213105	1	-8.72299e-05	42	95.3708	1.73232e-06
2	0	0	1	0	106.297	-0.831808	-0.8319	-0.00231551	1	-9.62856e-05	42	99.1697	1.92627e-06
2	0	0	1	0	110.096	-0.850803	-0.850879	-0.0025079	1	-0.000106138	42	102.969	2.13392e-06
2	0	0	1	0	113.895	-0.869797	-0.869863	-0.00267351	1	-0.000116631	42	106.767	2.32558e-06
2	0	0	1	0	117.694	-0.888791	-0.888867	-0.0028352	1	-0.00012778	42	110.566	2.52012e-06
2	0	0	1	0	121.493	-0.907785	-0.907846	-0.00306552	1	-0.000139652	42	114.365	2.78302e-06
2	0	0	1	0	125.292	-0.92678	-0.926863	-0.00329834	1	-0.000152462	42	118.164	3.0571e-06
2	0	0	1	0	129.09	-0.945773	-0.945827	-0.00325898	1	-0.000165765	42	121.963	3.08243e-06
2	0	0	0	0	132.889	-0.964768	-0.964839	-0.00327095	1	-0.000178827	42	125.762	3.15594e-06
2	0	0	0	0	136.688	-0.983762	-0.983827	-0.00329868	1	-0.000191947	42	129.56	3.24533e-06
2	0	0	0	0	140.487	-1.00276	-1.00282	-0.00340921	1	-0.000205521	42	133.359	3.41881e-06
2	0	0	0	0	144.286	-1.02175	-1.02181	-0.00351795	1	-0.000219358	42	137.158	3.59469e-06
2	0	0	1	0	148.085	-1.04074	-1.04082	-0.0036854	1	-0.000233779	42	140.957	3.83585e-06
2	0	0	1	0	151.884	-1.05974	-1.05979	-0.00382807	1	-0.000248827	42	144.756	4.05697e-06
2	0	0	1	0	155.682	-1.07873	-1.07878	-0.00395943	1	-0.000264393	42	148.555	4.27136e-06
2	0	0	1	0	159.481	-1.09773	-1.09777	-0.00415476	1	-0.000280656	42	152.353	4.56098e-06
2	0	0	1	0	163.28	-1.11672	-1.11673	-0.00436081	1	-0.000297649	42	156.152	4.86986e-06
2	0	0	1	0	167.079	-1.13572	-1.13577	-0.00472064	1	-0.000315595	42	159.951	5.36159e-06
2	0	0	1	0	170.878	-1.15471	-1.15476	-0.0059586	1	-0.000336554	42	163.75	6.88077e-06
2	0	0	0	0	174.677	-1.1737	-1.17374	-0.00755277	1	-0.000362303	42	167.549	8.86497e-06
2	0	0	0	0	178.495	-1.1928	-1.1928	-0.010535	1	-0.000399302	41	171.368	1.25661e-05
2	0	0	0	0	182.294	-1.21179	-1.21178	-0.0168104	1	-0.000449976	41	175.166	2.03706e-05
2	0	0	0	0	186.093	-1.23079	-1.23081	-0.0324791	1	-0.000531525	41	178.965	3.99756e-05
2	0	0	1	0	189.892	-1.24978	-1.24982	-0.0648393	1	-0.000709151	41	182.764	8.10374e-05
2	0	0	1	0	193.711	-1.26887	-1.2689	-0.109766	1	-0.00104981	40	186.583	0.000139282
2	0	0	1	0	197.51	-1.28787	-1.28789	-0.12957	1	-0.00148194	40	190.382	0.000166872
2	0	0	0	1	201.049	-1.29447	-1.29451	-0.118237	2	-0.00192084	40	193.921	0.000153059
2	0	0	1	1	204.848	-1.27547	-1.2755	-0.0806186	2	-0.00231168	40	197.72	0.000102829
2	0	0	1	1	208.647	-1.25648	-1.25651	-0.0662939	2	-0.00259146	40	201.519	8.32991e-05
2	0	0	1	1	212.446	-1.23748	-1.23752	-0.056373	2	-0.00282344	40	205.318	6.97627e-05
2	0	0	1	1	216.244	-1.21849	-1.21851	-0.0506852	2	-0.00301941	40	209.117	6.17603e-05
2	0	0	1	1	220.063	-1.1994	-1.19944	-0.0398247	2	-0.00318694	41	212.935	4.77672e-05
2	0	0	1	1	223.862	-1.1804	-1.18043	-0.0321085	2	-0.00331953	41	216.734	3.7902e-05
2	0	0	1	1	227.661	-1.16141	-1.16141	-0.0243875	2	-0.00342501	41	220.533	2.83239e-05
2	0	0	0	1	231.46	-1.14241	-1.14246	-0.0181969	2	-0.00350554	41	224.332	2.07893e-05
2	0	0	0	1	235.259	-1.12342	-1.12345	-0.0126511	2	-0.00356312	41	228.131	1.42129e-05
2	0	0	0	1	239.057	-1.10442	-1.10444	-0.00904988	2	-0.00360259	41	231.93	9.99507e-06
2	0	0	0	1	242.856	-1.08543	-1.08547	-0.00609381	2	-0.00363022	41	235.728	6.61467e-06
2	0	0	1	1	246.675	-1.06634	-1.06637	-0.00406836	2	-0.00364823	42	239.547	4.3384e-06
2	0	0	1	1	250.474	-1.04734	-1.04739	-0.0023933	2	-0.00365969	42	243.346	2.50671e-06
2	0	0	1	1	254.273	-1.02835	-1.02838	-0.001422	2	-0.00366601	42	247.145	1.46236e-06
2	0	0	1	1	258.072	-1.00935	-1.00939	-0.000749368	2	-0.00366945	42	250.944	7.56404e-07
2	1	0	1	1	261.87	-0.99036	-0.990403	0.000219027	2	-0.00366994	42	1.1996	-2.16926e-07
2	1	0	1	1	265.669	-0.971366	-0.971428	0.000805047	2	-0.0036674	42	4.9984	-7.82046e-07
2	1	0	1	1	269.468	-0.952371	-0.952409	0.00122867	2	-0.00366302	42	8.7973	-1.17019e-06
2	1	0	1	1	273.267	-0.933378	-0.933436	0.0014159	2	-0.00365725	42	12.5961	-1.32166e-06
2	1	0	0	1	277.066	-0.914383	-0.914424	0.0017392	2	-0.00365089	42	16.395	-1.59037e-06
2	1	0	0	1	280.865	-0.895389	-0.895426	0.00177405	2	-0.00364324	42	20.1938	-1.58853e-06
2	1	0	0	1	284.663	-0.876395	-0.876413	0.00170976	2	-0.00363581	42	23.9926	-1.49846e-06
2	1	0	1	1	288.462	-0.857401	-0.857434	0.00136789	2	-0.00362935	42	27.7914	-1.17287e-06
2	1	0	1	1	292.261	-0.838407	-0.838445	0.0012376	2	-0.00362394	42	31.5903	-1.03766e-06
2	1	0	1	1	296.06	-0.819412	-0.819452	0.00137931	2	-0.00361844	42	35.3892	-1.13028e-06
2	1	0	1	1	299.859	-0.800418	-0.800434	0.00147306	2	-0.00361245	42	39.188	-1.17909e-06
2	1	0	1	1	303.658	-0.781424	-0.781471	0.00148753	2	-0.00360622	42	42.9868	-1.16247e-06
2	1	0	1	1	307.456	-0.76243	-0.762475	0.00142497	2	-0.00360011	42	46.7856	-1.0865e-06
2	1	0	1	1	311.255	-0.743436	-0.743506	0.00141496	2	-0.00359416	42	50.5845	-1.05203e-06
2	1	0	0	1	315.054	-0.724441	-0.7245	0.00130897	2	-0.00358853	42	54.3834	-9.48351e-07
2	1	0	0	1	318.853	-0.705447	-0.70552	0.00124498	2	-0.00358316	42	58.1822	-8.78358e-07
2	1	0	0	1	322.652	-0.686453	-0.686522	0.00118274	2	-0.00357804	42	61.981	-8.1198e-07
2	1	0	0	1	326.451	-0.667459	-0.667526	0.00108858	2	-0.00357322	42	65.7798	-7.26658e-07
2	1	0	1	1	330.249	-0.648464	-0.648522	0.0010127	2	-0.00356879	42	69.5787	-6.5676e-07
2	1	0	1	1	334.048	-0.629471	-0.629545	0.000956921	2	-0.00356459	42	73.3775	-6.02425e-07
2	1	0	1	1	337.847	-0.610476	-0.610521	0.000914041	2	-0.00356059	42	77.1764	-5.58041e-07
2	1	0	1	1	341.646	-0.591482	-0.591561	0.00090236	2	-0.00355671	42	80.9752	-5.33801e-07
2	1	0	1	1	345.445	-0.572488	-0.572535	0.000871456	2	-0.00355287	42	84.774	-4.98938e-07
2	1	0	1	1	349.244	-0.553494	-0.553564	0.000845722	2	-0.00354916	42	88.5728	-4.68161e-07
2	1	0	1	1	353.042	-0.534499	-0.534557	0.000810203	2	-0.00354555	42	92.3717	-4.331e-07
2	1	0	0	1	356.841	-0.515505	-0.515579	0.000774029	2	-0.00354212	42	96.1706	-3.99073e-07
2	1	0	0	1	360.64	-0.496511	-0.496584	0.000797205	2	-0.0035387	42	99.9694	-3.9588e-07
2	1	0	0	1	364.439	-0.477517	-0.477615	0.000863927	2	-0.00353512	42	103.768	-4.12625e-07
2	1	0	0	1	368.238	-0.458523	-0.45861	0.000918816	2	-0.00353132	42	107.567	-4.21378e-07
2	1	0	1	1	372.037	-0.439528	-0.439625	0.000963478	2	-0.00352731	42	111.366	-4.23569e-07
2	1	0	1	1	375.835	-0.420535	-0.42064	0.00103901	2	-0.00352306	42	115.165	-4.37048e-07
2	1	0	1	1	379.634	-0.40154	-0.401629	0.0011042	2	-0.00351858	42	118.964	-4.43479e-07
2	1	0	1	1	383.433	-0.382546	-0.382628	0.0011776	2	-0.00351384	42	122.762	-4.50583e-07
2	1	0	1	1	387.232	-0.363552	-0.36363	0.00123126	2	-0.00350887	42	126.561	-4.47721e-07
2	1	0	1	1	391.031	-0.344558	-0.344644	0.00129944	2	-0.00350366	42	130.36	-4.47843e-07
2	1	0	1	1	394.83	-0.325564	-0.325642	0.00136728	2	-0.00349822	42	134.159	-4.45244e-07
2	1	0	0	1	398.629	-0.306569	-0.306643	0.00144759	2	-0.00349248	42	137.958	-4.43895e-07
2	1	0	1	1	402.248	-0.311568	-0.311647	0.000877765	2	-0.00348822	42	141.577	-2.73553e-07
2	1	0	1	1	406.047	-0.330562	-0.330637	0.000492892	2	-0.00348606	42	145.376	-1.62968e-07
2	1	0	1	1	409.846	-0.349556	-0.34964	0.000225567	2	-0.00348508	42	149.175	-7.88674e-08
2	0	0	1	1	413.644	-0.36855	-0.368622	3.98085e-06	2	-0.00348503	42	1.3995	-1.46743e-09
2	0	0	1	1	417.443	-0.387545	-0.38761	-0.000184441	2	-0.00348577	42	5.1984	7.14912e-08
2	0	0	1	1	420.822	-0.404489	-0.404547	-0.000572604	2	-0.003487	42	8.5767	2.31645e-07