File: Fig 2/Fig 2_np-Fe2O3_5mvs.mpt
mode	ox/red	error	control changes	counter inc.	time/s	control/V	Ewe/V	<I>/mA	cycle number	(Q-Qo)/C	I Range	step time/s	P/W
2	1	0	1	0	0.000000000000000E+000	-0.300043	-0.300155	0.19903	1	0.0000000E+000	39	0.000000000000000E+000	-5.97399e-05
2	1	0	0	0	1.9548	-0.31959	-0.319716	0.00394845	1	1.69984e-05	39	1.8998	-1.26238e-06
2	1	0	0	0	3.9544	-0.339586	-0.339699	0.00306479	1	2.32163e-05	39	3.8994	-1.04111e-06
2	1	0	0	0	5.954	-0.359583	-0.35969	0.0027912	1	2.8419e-05	39	5.899	-1.00397e-06
2	1	0	1	0	7.9538	-0.37958	-0.379675	0.00259772	1	3.32655e-05	39	7.8988	-9.86291e-07
2	1	0	1	0	9.9534	-0.399576	-0.399652	0.00244169	1	3.78209e-05	39	9.8984	-9.75828e-07
2	1	0	1	0	11.953	-0.419573	-0.419683	0.00237537	1	4.21617e-05	39	11.898	-9.96902e-07
2	1	0	1	0	13.9526	-0.439569	-0.439673	0.00232337	1	4.63829e-05	39	13.8976	-1.02152e-06
2	1	0	0	0	15.9524	-0.459566	-0.45968	0.00227812	1	5.04314e-05	39	15.8974	-1.04721e-06
2	1	0	0	0	17.952	-0.479562	-0.479666	0.00234204	1	5.43364e-05	39	17.897	-1.1234e-06
2	1	0	0	0	19.9516	-0.499559	-0.499659	0.00210139	1	5.81099e-05	39	19.8966	-1.04998e-06
2	1	0	1	0	21.9514	-0.519555	-0.519626	0.00213945	1	6.17797e-05	39	21.8964	-1.11172e-06
2	1	0	1	0	23.951	-0.539552	-0.539617	0.00212487	1	6.53964e-05	39	23.896	-1.14662e-06
2	0	0	1	0	25.9506	-0.559549	-0.559628	0.00190202	1	6.88493e-05	39	25.8956	-1.06443e-06
2	0	0	1	0	27.9502	-0.579545	-0.579635	0.00197663	1	7.21312e-05	39	27.8952	-1.14573e-06
2	1	0	0	0	29.95	-0.599542	-0.599621	0.00190421	1	7.53051e-05	39	29.895	-1.14181e-06
2	1	0	0	0	31.9496	-0.619538	-0.619624	0.00202475	1	7.84821e-05	39	31.8946	-1.25458e-06
2	1	0	0	0	33.9492	-0.639535	-0.639615	0.00182147	1	8.15636e-05	39	33.8942	-1.16504e-06
2	1	0	1	0	35.9489	-0.659532	-0.659635	0.0016802	1	8.44867e-05	39	35.8939	-1.10832e-06
2	0	0	1	0	37.9486	-0.679528	-0.679601	0.00171705	1	8.72682e-05	39	37.8936	-1.16691e-06
2	1	0	1	0	39.9482	-0.699524	-0.699589	0.00167735	1	8.99131e-05	39	39.8932	-1.17345e-06
2	1	0	1	0	41.9478	-0.719521	-0.71958	0.00156944	1	9.23193e-05	39	41.8928	-1.12934e-06
2	1	0	0	0	43.9476	-0.739517	-0.739587	0.0014487	1	9.46047e-05	39	43.8926	-1.07144e-06
2	1	0	0	0	45.9472	-0.759514	-0.759602	0.00142949	1	9.66863e-05	39	45.8922	-1.08584e-06
2	1	0	0	0	47.9468	-0.77951	-0.779603	0.00143047	1	9.86704e-05	39	47.8918	-1.11519e-06
2	1	0	0	0	49.9464	-0.799507	-0.799587	0.0011834	1	0.000100416	39	49.8914	-9.46233e-07
2	1	0	1	0	51.9462	-0.819504	-0.819564	0.00101864	1	0.000101746	39	51.8912	-8.34842e-07
2	1	0	1	0	53.9458	-0.8395	-0.839589	0.000780094	1	0.000102623	39	53.8908	-6.54958e-07
2	1	0	1	0	55.9454	-0.859497	-0.859558	0.000505414	1	0.000103062	39	55.8904	-4.34433e-07
2	0	0	1	0	57.9451	-0.879493	-0.879557	0.000305464	1	0.000103008	39	0.9999	-2.68673e-07
2	1	0	0	0	59.9448	-0.89949	-0.899548	-0.000114736	1	0.000102315	39	2.9996	1.0321e-07
2	1	0	0	0	61.9444	-0.919486	-0.919543	-0.000684279	1	0.000100609	39	4.9992	6.29225e-07
2	0	0	0	0	63.944	-0.939483	-0.939517	-0.00183535	1	9.72829e-05	39	6.9988	1.72434e-06
2	0	0	1	0	65.9438	-0.95948	-0.959518	-0.00362544	1	9.11141e-05	39	8.9986	3.47868e-06
2	0	0	1	0	67.9434	-0.979476	-0.979516	-0.00682623	1	7.99068e-05	39	10.9982	6.6864e-06
2	0	0	1	0	69.943	-0.999473	-0.99953	-0.011551	1	6.0755e-05	39	12.9978	1.15455e-05
2	0	0	1	0	71.9426	-1.01947	-1.01951	-0.0165957	1	3.17727e-05	39	14.9974	1.69194e-05
2	0	0	0	0	73.9424	-1.03947	-1.03953	-0.0214382	1	-7.48728e-06	39	16.9972	2.22856e-05
2	0	0	0	0	75.942	-1.05946	-1.0595	-0.0238713	1	-5.44181e-05	39	18.9968	2.52917e-05
2	0	0	0	0	77.9416	-1.07946	-1.07951	-0.0237374	1	-0.000103426	39	20.9964	2.56248e-05
2	0	0	1	0	79.9414	-1.09946	-1.09952	-0.0247266	1	-0.000151786	39	22.9962	2.71875e-05
2	0	0	1	0	81.941	-1.11945	-1.11951	-0.0405901	1	-0.000216432	39	24.9958	4.54412e-05
2	0	0	1	0	83.9406	-1.13945	-1.1395	-0.0867174	1	-0.000333459	39	26.9954	9.88146e-05
2	0	0	1	0	85.9402	-1.15945	-1.15946	-0.117661	1	-0.000552471	39	28.995	0.000136423
2	0	0	0	0	87.94	-1.17944	-1.17946	-0.108933	1	-0.000781601	39	30.9948	0.000128483
2	0	0	0	0	89.9396	-1.19944	-1.19946	-0.10027	1	-0.000990936	39	32.9944	0.00012027
2	0	0	0	0	91.9392	-1.21943	-1.21945	-0.101669	1	-0.00119182	39	34.994	0.000123981
2	0	0	1	0	93.9389	-1.23943	-1.23947	-0.118044	1	-0.00140986	39	36.9937	0.000146312
2	0	0	1	0	95.9386	-1.25943	-1.25945	-0.157167	1	-0.0016815	39	38.9934	0.000197944
2	0	0	1	0	97.9382	-1.27942	-1.27944	-0.258131	1	-0.00208079	39	40.993	0.000330263
2	0	0	1	0	99.9378	-1.29942	-1.29943	-0.648689	1	-0.00290691	39	42.9926	0.000842929
2	0	0	0	0	101.938	-1.31942	-1.31943	-1.93721	1	-0.00527341	39	44.9924	0.002556
2	0	0	0	0	103.937	-1.33941	-1.33945	-3.66398	1	-0.0109053	39	46.992	0.0049077
2	0	0	0	1	105.847	-1.34141	-1.34147	-3.94345	2	-0.0188066	39	48.902	0.00529
2	0	0	1	1	107.847	-1.32142	-1.32143	-2.81796	2	-0.0254891	39	50.9018	0.00372375
2	0	0	1	1	109.847	-1.30142	-1.30143	-1.90807	2	-0.0301623	39	52.9014	0.00248323
2	0	0	1	1	111.846	-1.28142	-1.28145	-1.28717	2	-0.0333136	39	54.901	0.00164945
2	0	0	1	1	113.846	-1.26143	-1.26144	-0.866795	2	-0.0354343	39	56.9006	0.00109341
2	0	0	0	1	115.846	-1.24143	-1.24147	-0.607246	2	-0.0368929	39	58.9004	0.000753876
2	0	0	0	1	117.845	-1.22143	-1.22148	-0.441605	2	-0.037923	39	60.9	0.000539413
2	0	0	0	1	119.845	-1.20144	-1.20149	-0.337963	2	-0.0386924	39	62.8996	0.000406059
2	0	0	1	1	121.844	-1.18144	-1.18147	-0.265264	2	-0.0392905	39	64.8993	0.000313402
2	0	0	1	1	123.844	-1.16144	-1.16148	-0.203105	2	-0.0397569	39	66.899	0.000235903
2	0	0	1	1	125.844	-1.14145	-1.1415	-0.146299	2	-0.0401029	39	68.8986	0.000167
2	0	0	1	1	127.843	-1.12145	-1.12147	-0.100507	2	-0.0403447	39	70.8982	0.000112716
2	0	0	0	1	129.843	-1.10146	-1.10147	-0.0682225	2	-0.0405095	39	72.898	7.51451e-05
2	0	0	0	1	131.843	-1.08146	-1.08148	-0.0452355	2	-0.0406199	39	74.8976	4.89214e-05
2	0	0	0	1	133.842	-1.06146	-1.0615	-0.0277538	2	-0.0406902	39	76.8972	2.94606e-05
2	0	0	0	1	135.842	-1.04147	-1.04152	-0.0128982	2	-0.0407287	39	78.8968	1.34337e-05
2	1	0	1	1	137.842	-1.02147	-1.02152	0.0048025	2	-0.0407343	39	0.6	-4.90584e-06
2	1	0	1	1	139.841	-1.00147	-1.00152	0.00899768	2	-0.0407166	39	2.5996	-9.01138e-06
2	1	0	1	1	141.841	-0.981476	-0.981534	0.0141123	2	-0.0406921	39	4.5992	-1.38517e-05
2	1	0	1	1	143.841	-0.96148	-0.961516	0.0230854	2	-0.0406541	39	6.5989	-2.2197e-05
2	1	0	0	1	145.84	-0.941483	-0.941524	0.0364643	2	-0.0405936	39	8.5986	-3.4332e-05
2	1	0	0	1	147.84	-0.921486	-0.921519	0.0544353	2	-0.0405017	39	10.5982	-5.01631e-05
2	1	0	0	1	149.84	-0.90149	-0.90151	0.0702212	2	-0.0403741	39	12.5978	-6.33051e-05
2	1	0	1	1	151.839	-0.881493	-0.881515	0.0669392	2	-0.0402324	39	14.5976	-5.90079e-05
2	1	0	1	1	153.839	-0.861496	-0.861546	0.0573425	2	-0.0401073	39	16.5972	-4.94032e-05
2	1	0	1	1	155.839	-0.8415	-0.841535	0.0496259	2	-0.0399994	39	18.5968	-4.1762e-05
2	1	0	1	1	157.838	-0.821504	-0.821527	0.0429334	2	-0.0399057	39	20.5964	-3.52709e-05
2	1	0	0	1	159.838	-0.801507	-0.801544	0.0364834	2	-0.0398254	39	22.5962	-2.9243e-05
2	1	0	0	1	161.838	-0.78151	-0.78155	0.0313402	2	-0.0397569	39	24.5958	-2.44939e-05
2	1	0	0	1	163.837	-0.761514	-0.761555	0.0271321	2	-0.0396978	39	26.5954	-2.06626e-05
2	1	0	1	1	165.837	-0.741517	-0.741575	0.0239078	2	-0.0396461	39	28.5952	-1.77294e-05
2	1	0	1	1	167.837	-0.721521	-0.721606	0.0214608	2	-0.0396	39	30.5948	-1.54863e-05
2	1	0	1	1	169.836	-0.701524	-0.70159	0.0197297	2	-0.0395581	39	32.5944	-1.38422e-05
2	1	0	1	1	171.836	-0.681527	-0.681595	0.0184576	2	-0.0395193	39	34.594	-1.25806e-05
2	1	0	0	1	173.836	-0.661531	-0.661595	0.0176229	2	-0.0394825	39	36.5938	-1.16592e-05
2	1	0	0	1	175.835	-0.641534	-0.641587	0.017081	2	-0.0394472	39	38.5934	-1.0959e-05
2	1	0	0	1	177.835	-0.621538	-0.621614	0.016614	2	-0.0394129	39	40.593	-1.03275e-05
2	1	0	1	1	179.834	-0.601542	-0.601618	0.0163552	2	-0.0393793	39	42.5927	-9.83958e-06
2	1	0	1	1	181.834	-0.581545	-0.581603	0.0161331	2	-0.0393463	39	44.5924	-9.38309e-06
2	1	0	1	1	183.834	-0.561548	-0.561624	0.0157501	2	-0.0393139	39	46.592	-8.84565e-06
2	1	0	1	1	185.833	-0.541552	-0.541627	0.0153633	2	-0.0392821	39	48.5916	-8.32116e-06
2	1	0	0	1	187.833	-0.521555	-0.521628	0.015095	2	-0.0392511	39	50.5914	-7.874e-06
2	1	0	0	1	189.833	-0.501558	-0.501613	0.0148008	2	-0.0392207	39	52.591	-7.42429e-06
2	1	0	0	1	191.832	-0.481562	-0.48162	0.0144487	2	-0.0391911	39	54.5906	-6.95878e-06
2	1	0	1	1	193.832	-0.461564	-0.461604	0.0140529	2	-0.0391622	39	56.5903	-6.48688e-06
2	1	0	1	1	195.832	-0.441569	-0.44162	0.0137523	2	-0.0391339	39	58.59	-6.07327e-06
2	1	0	1	1	197.831	-0.421572	-0.421617	0.0136139	2	-0.0391062	39	60.5896	-5.73986e-06
2	1	0	1	1	199.831	-0.401576	-0.401627	0.0132931	2	-0.039079	39	62.5892	-5.33888e-06
2	1	0	0	1	201.831	-0.381579	-0.381645	0.0132584	2	-0.039052	39	64.589	-5.06001e-06
2	1	0	0	1	203.83	-0.361583	-0.36164	0.0129657	2	-0.0390255	39	66.5886	-4.68892e-06
2	1	0	0	1	205.83	-0.341586	-0.34163	0.0128276	2	-0.0389993	39	68.5882	-4.38229e-06
2	1	0	0	1	207.83	-0.321589	-0.321654	0.01255	2	-0.0389735	39	70.5878	-4.03676e-06
2	1	0	1	1	209.829	-0.301593	-0.301648	0.0124727	2	-0.0389479	39	72.5876	-3.76237e-06
2	1	0	0	1	211.74	-0.31759	-0.317657	0.0105312	2	-0.0389264	39	74.4978	-3.34533e-06
2	1	0	0	1	213.739	-0.337587	-0.337635	0.00911653	2	-0.0389072	39	76.4974	-3.07806e-06
2	1	0	1	1	215.739	-0.357584	-0.357634	0.00817086	2	-0.0388903	39	78.4971	-2.92218e-06
2	1	0	1	1	217.739	-0.37758	-0.377633	0.00750978	2	-0.0388752	39	80.4968	-2.83594e-06
2	1	0	1	1	219.738	-0.397576	-0.397633	0.00676607	2	-0.0388614	39	82.4964	-2.69041e-06
2	1	0	1	1	221.738	-0.417573	-0.417647	0.00637324	2	-0.0388487	39	84.496	-2.66176e-06
2	1	0	0	1	223.738	-0.43757	-0.437631	0.005858	2	-0.038837	39	86.4958	-2.56364e-06
2	1	0	0	1	225.737	-0.457566	-0.457628	0.005443	2	-0.0388262	39	88.4954	-2.49087e-06
2	1	0	0	1	227.737	-0.477563	-0.477636	0.0051878	2	-0.0388159	39	90.495	-2.47788e-06
2	1	0	0	1	229.736	-0.497559	-0.49761	0.00485826	2	-0.0388063	39	92.4946	-2.41752e-06
2	1	0	1	1	231.279	-0.513006	-0.513084	0.00549608	2	-0.0387994	39	94.0374	-2.81995e-06