File: Fig 2/Fig 2_np-Fe3O4_100mvs.mpt
mode	ox/red	error	control changes	counter inc.	time/s	control/V	Ewe/V	<I>/mA	cycle number	(Q-Qo)/C	I Range	step time/s	P/W
2	1	0	0	0	0.000000000000000E+000	-0.300041	-0.299805	0.614561	1	0.0000000E+000	39	0.000000000000000E+000	-0.000184249
2	1	0	1	0	0.6157	-0.361598	-0.361378	0.00657079	1	1.67965e-05	39	0.6101	-2.37454e-06
2	1	0	1	0	1.2357	-0.423605	-0.423358	-0.000281449	1	1.82242e-05	39	0.06	1.19154e-07
2	0	0	1	0	1.8559	-0.485612	-0.485387	-0.00394022	1	1.67016e-05	39	0.6802	1.91253e-06
2	0	0	1	0	2.4759	-0.547619	-0.547395	-0.00721336	1	1.3055e-05	39	1.3002	3.94855e-06
2	0	0	1	0	3.0959	-0.609625	-0.609389	-0.0110665	1	7.20558e-06	39	1.9202	6.74384e-06
2	0	0	1	0	3.7161	-0.671632	-0.671416	-0.0158026	1	-1.32331e-06	39	2.5404	1.06101e-05
2	0	0	1	0	4.3361	-0.733639	-0.733435	-0.0214033	1	-1.3052e-05	39	3.1604	1.56979e-05
2	0	0	1	0	4.9561	-0.795646	-0.795433	-0.0285817	1	-2.86554e-05	39	3.7804	2.27348e-05
2	0	0	1	0	5.5763	-0.857653	-0.857474	-0.0405928	1	-4.99351e-05	39	4.4006	3.48073e-05
2	0	0	1	0	6.1963	-0.91966	-0.919444	-0.0612313	1	-8.1144e-05	39	5.0206	5.62987e-05
2	0	0	1	0	6.8163	-0.981667	-0.981449	-0.090766	1	-0.000128309	39	5.6406	8.90822e-05
2	0	0	1	0	7.4365	-1.04367	-1.04347	-0.10602	1	-0.000190976	39	6.2608	0.000110629
2	0	0	1	0	8.0565	-1.10568	-1.10546	-0.109225	1	-0.000257493	39	6.8808	0.000120744
2	0	0	1	0	8.6765	-1.16769	-1.16747	-0.270814	1	-0.000350745	39	7.5008	0.000316166
2	0	0	1	0	9.2967	-1.22969	-1.22945	-1.05924	1	-0.000752584	39	8.121	0.00130228
2	0	0	1	0	9.9167	-1.2917	-1.29148	-1.60723	1	-0.00159779	39	8.741	0.00207571
2	0	0	1	1	10.5151	-1.34851	-1.34828	-1.49637	2	-0.00253508	39	9.3394	0.00201752
2	0	0	1	1	11.1351	-1.2865	-1.28629	-0.807447	2	-0.00322958	39	9.9594	0.00103861
2	0	0	1	1	11.7551	-1.22449	-1.22427	-0.406621	2	-0.00359383	39	10.5794	0.000497814
2	0	0	1	1	12.3753	-1.16249	-1.16226	-0.16888	2	-0.00376611	39	11.1996	0.000196283
2	0	0	1	1	12.9953	-1.10048	-1.10025	-0.0332837	2	-0.00382369	39	11.8196	3.66206e-05
2	1	0	1	1	13.6153	-1.03847	-1.03826	0.0346564	2	-0.00382096	39	0.36	-3.59824e-05
2	1	0	1	1	14.2355	-0.976466	-0.976252	0.0735835	2	-0.00378404	39	0.9802	-7.18361e-05
2	1	0	1	1	14.8555	-0.914459	-0.914244	0.126437	2	-0.0037264	39	1.6002	-0.000115594
2	1	0	1	1	15.4755	-0.852453	-0.852275	0.227041	2	-0.00361426	39	2.2202	-0.000193501
2	1	0	1	1	16.0957	-0.790446	-0.790244	0.209907	2	-0.0034728	39	2.8404	-0.000165878
2	1	0	1	1	16.7157	-0.728439	-0.728236	0.15621	2	-0.00335964	39	3.4604	-0.000113758
2	1	0	1	1	17.3357	-0.666432	-0.666224	0.123585	2	-0.00327412	39	4.0804	-8.2335e-05
2	1	0	1	1	17.9559	-0.604425	-0.604194	0.114574	2	-0.00320108	39	4.7006	-6.92247e-05
2	1	0	1	1	18.5759	-0.542418	-0.542196	0.113433	2	-0.00312991	39	5.3206	-6.15027e-05
2	1	0	1	1	19.196	-0.480404	-0.4802	0.104176	2	-0.00306192	39	5.9407	-5.00254e-05
2	1	0	1	1	19.8161	-0.418404	-0.418175	0.102335	2	-0.00299834	39	6.5608	-4.27941e-05
2	1	0	1	1	20.4361	-0.356397	-0.356196	0.0909967	2	-0.00293715	39	7.1808	-3.24126e-05
2	1	0	1	1	21.0459	-0.304591	-0.3044	0.0720452	2	-0.00288438	39	7.7906	-2.19305e-05
2	1	0	1	1	21.6659	-0.366598	-0.366363	0.0266813	2	-0.00285731	39	8.4106	-9.77504e-06
2	1	0	1	1	22.2859	-0.428605	-0.428413	0.0121854	2	-0.00284618	39	9.0306	-5.22037e-06
2	1	0	1	1	22.9061	-0.490612	-0.490404	0.00553179	2	-0.00284117	39	9.6508	-2.71281e-06
2	1	0	1	1	23.5261	-0.552619	-0.552402	0.00137265	2	-0.00283934	39	10.2708	-7.58253e-07
2	0	0	1	1	24.1461	-0.614626	-0.614401	-0.00185374	2	-0.00283966	39	0.39	1.13894e-06
2	0	0	1	1	24.7663	-0.676633	-0.676424	-0.00545303	2	-0.00284206	39	1.0102	3.68856e-06
2	0	0	1	1	25.3863	-0.73864	-0.738413	-0.0108435	2	-0.00284735	39	1.6302	8.00695e-06
2	0	0	1	1	26.0063	-0.800647	-0.800427	-0.0217199	2	-0.00285721	39	2.2502	1.73852e-05
2	0	0	1	1	26.6265	-0.862654	-0.862449	-0.0449984	2	-0.00287787	39	2.8704	3.88088e-05
2	0	0	1	1	27.2465	-0.924661	-0.92448	-0.0563965	2	-0.00291084	39	3.4904	5.21374e-05
2	0	0	1	1	27.8665	-0.986668	-0.986452	-0.0638001	2	-0.00294717	39	4.1104	6.29357e-05
2	0	0	1	1	28.4867	-1.04867	-1.04847	-0.10141	2	-0.00299674	39	4.7306	0.000106325
2	0	0	1	1	29.1067	-1.11068	-1.11047	-0.156939	2	-0.00307785	39	5.3506	0.000174277
2	0	0	1	1	29.7267	-1.17269	-1.17248	-0.22261	2	-0.00319322	39	5.9706	0.000261005
2	0	0	1	1	30.3469	-1.2347	-1.23447	-0.459496	2	-0.0033948	39	6.5908	0.000567234
2	0	0	1	1	30.9669	-1.2967	-1.29648	-0.794596	2	-0.00377942	39	7.2108	0.00103018
2	0	0	1	0	31.5653	-1.34351	-1.34328	-1.17636	3	-0.00439108	39	7.8092	0.00158018
2	0	0	1	0	32.1853	-1.2815	-1.28128	-0.655837	3	-0.00494874	39	8.4292	0.000840312
2	0	0	1	0	32.8053	-1.21949	-1.21929	-0.330138	3	-0.0052453	39	9.0492	0.000402536
2	0	0	1	0	33.4255	-1.15749	-1.15727	-0.135964	3	-0.00538453	39	9.6694	0.000157348
2	0	0	1	0	34.0455	-1.09548	-1.09526	-0.0257994	3	-0.00543091	39	10.2894	2.8257e-05
2	1	0	1	0	34.6655	-1.03347	-1.03329	0.0316882	3	-0.00542728	39	0.38	-3.27432e-05
2	1	0	1	0	35.2857	-0.971466	-0.971257	0.0654161	3	-0.00539466	39	1.0002	-6.35358e-05
2	1	0	1	0	35.9057	-0.909459	-0.909243	0.14829	3	-0.00533375	39	1.6202	-0.000134832
2	1	0	1	0	36.5257	-0.847452	-0.84726	0.267725	3	-0.00520064	39	2.2402	-0.000226833
2	1	0	1	0	37.1459	-0.785445	-0.785246	0.236353	3	-0.00503769	39	2.8604	-0.000185596
2	1	0	1	0	37.7659	-0.723438	-0.723219	0.169039	3	-0.00491281	39	3.4804	-0.000122252
2	1	0	1	0	38.3859	-0.661431	-0.661252	0.129217	3	-0.00482173	39	4.1004	-8.54452e-05
2	1	0	1	0	39.0061	-0.599424	-0.599193	0.114865	3	-0.00474671	39	4.7206	-6.88261e-05
2	1	0	1	0	39.6261	-0.537417	-0.537207	0.105912	3	-0.00467783	39	5.3406	-5.68968e-05
2	1	0	1	0	40.2463	-0.47541	-0.47521	0.0944919	3	-0.00461556	39	5.9608	-4.49035e-05
2	1	0	1	0	40.8663	-0.413403	-0.413199	0.085807	3	-0.00455952	39	6.5808	-3.54554e-05
2	1	0	1	0	41.4863	-0.351397	-0.351211	0.080678	3	-0.00450778	39	7.2008	-2.8335e-05
2	1	0	1	0	42.0961	-0.309592	-0.309394	0.0614301	3	-0.00446052	39	7.8106	-1.90061e-05
2	1	0	1	0	42.7161	-0.371599	-0.371371	0.0297207	3	-0.00443424	39	8.4306	-1.10374e-05
2	1	0	1	0	43.3361	-0.433606	-0.433409	0.0163243	3	-0.00442062	39	9.0506	-7.07511e-06
2	1	0	1	0	43.9563	-0.495613	-0.495413	0.00886442	3	-0.00441326	39	9.6708	-4.39155e-06
2	1	0	1	0	44.5763	-0.55762	-0.557434	0.00380439	3	-0.00440968	39	10.2908	-2.1207e-06
2	0	0	1	0	45.1963	-0.619627	-0.619441	-0.000275075	3	-0.00440887	39	0.09	1.70393e-07
2	0	0	1	0	45.8165	-0.681633	-0.681452	-0.0046382	3	-0.00441055	39	0.7102	3.16071e-06
2	0	0	1	0	46.4365	-0.74364	-0.743447	-0.0109869	3	-0.00441546	39	1.3302	8.16815e-06
2	0	0	1	0	47.0565	-0.805647	-0.805439	-0.0238489	3	-0.00442583	39	1.9502	1.92088e-05
2	0	0	1	0	47.6767	-0.867654	-0.867484	-0.0487156	3	-0.00444839	39	2.5704	4.226e-05
2	0	0	1	0	48.2967	-0.929661	-0.929469	-0.0586391	3	-0.00448329	39	3.1904	5.45032e-05
2	0	0	1	0	48.9167	-0.991668	-0.991484	-0.0665197	3	-0.00452133	39	3.8104	6.59533e-05
2	0	0	1	0	49.5369	-1.05368	-1.05348	-0.0984809	3	-0.00457155	39	4.4306	0.000103748
2	0	0	1	0	50.1569	-1.11568	-1.11547	-0.132806	3	-0.00464377	39	5.0506	0.000148141
2	0	0	1	0	50.7769	-1.17769	-1.17748	-0.203859	3	-0.00474402	39	5.6706	0.000240039
2	0	0	1	0	51.3971	-1.2397	-1.23949	-0.380052	3	-0.00492071	39	6.2908	0.00047107
2	0	0	1	0	52.0171	-1.3017	-1.30149	-0.652111	3	-0.00523264	39	6.9108	0.000848713
2	0	0	1	1	52.6155	-1.33851	-1.3383	-0.907739	4	-0.00573603	39	7.5092	0.00121483
2	0	0	1	1	53.2355	-1.2765	-1.27631	-0.481696	4	-0.006156	39	8.1292	0.000614794
2	0	0	1	1	53.8555	-1.21449	-1.2143	-0.234407	4	-0.00637004	39	8.7492	0.000284641
2	0	0	1	1	54.4757	-1.15249	-1.15229	-0.0938745	4	-0.00646782	39	9.3694	0.000108171
2	0	0	1	1	55.0957	-1.09048	-1.0903	-0.0139179	4	-0.00649832	39	9.9894	1.51747e-05
2	1	0	1	1	55.7157	-1.02847	-1.02829	0.0281707	4	-0.00649285	39	0.44	-2.89676e-05
2	1	0	1	1	56.3359	-0.966465	-0.96627	0.0550124	4	-0.00646646	39	1.0602	-5.31568e-05
2	1	0	1	1	56.9559	-0.904458	-0.904242	0.148697	4	-0.00640812	39	1.6802	-0.000134458
2	1	0	1	1	57.5759	-0.842451	-0.842248	0.264156	4	-0.00627479	39	2.3002	-0.000222485
2	1	0	1	1	58.1961	-0.780444	-0.780223	0.217457	4	-0.00611901	39	2.9204	-0.000169665
2	1	0	1	1	58.8161	-0.718438	-0.718239	0.149854	4	-0.0060065	39	3.5404	-0.000107631
2	1	0	1	1	59.4363	-0.656431	-0.656244	0.112444	4	-0.00592644	39	4.1606	-7.37905e-05
2	1	0	1	1	60.0563	-0.594424	-0.594217	0.0969289	4	-0.00586196	39	4.7806	-5.75968e-05
2	1	0	1	1	60.6763	-0.532417	-0.532213	0.0866846	4	-0.00580476	39	5.4006	-4.61346e-05
2	1	0	1	1	61.2965	-0.47041	-0.470195	0.0773071	4	-0.00575385	39	6.0208	-3.63494e-05
2	1	0	1	1	61.9165	-0.408403	-0.408195	0.0709605	4	-0.00570784	39	6.6408	-2.89657e-05
2	1	0	1	1	62.5365	-0.346396	-0.346192	0.0673166	4	-0.0056649	39	7.2608	-2.33045e-05
2	1	0	1	1	63.1463	-0.314592	-0.314392	0.047425	4	-0.00562626	39	7.8706	-1.491e-05
2	1	0	1	1	63.7663	-0.376599	-0.376401	0.0244535	4	-0.00560546	39	8.4906	-9.20434e-06
2	1	0	1	1	64.3863	-0.438606	-0.438386	0.0139117	4	-0.00559412	39	9.1106	-6.0987e-06
2	1	0	1	1	65.0065	-0.500613	-0.500418	0.00746104	4	-0.00558789	39	9.7308	-3.73364e-06
2	1	0	1	1	65.6265	-0.56262	-0.562424	0.00256462	4	-0.00558506	39	10.3508	-1.4424e-06
2	0	0	1	1	66.2465	-0.624627	-0.624429	-0.00138737	4	-0.00558487	39	0.25	8.66313e-07
2	0	0	1	1	66.8667	-0.686634	-0.686439	-0.00583867	4	-0.00558723	39	0.8702	4.00789e-06
2	0	0	1	1	67.4867	-0.748641	-0.748457	-0.012608	4	-0.00559303	39	1.4902	9.43657e-06
2	0	0	1	1	68.1067	-0.810648	-0.810456	-0.0267789	4	-0.00560484	39	2.1102	2.17031e-05
2	0	0	1	1	68.7269	-0.872655	-0.872472	-0.0518018	4	-0.00562948	39	2.7304	4.51956e-05
2	0	0	1	1	69.3469	-0.934662	-0.934469	-0.058637	4	-0.00566515	39	3.3504	5.47945e-05
2	0	0	1	1	69.9669	-0.996669	-0.996454	-0.0638373	4	-0.00570248	39	3.9704	6.36109e-05
2	0	0	1	1	70.5871	-1.05868	-1.05849	-0.0848784	4	-0.00574831	39	4.5906	8.9843e-05
2	0	0	1	1	71.2071	-1.12068	-1.12049	-0.113395	4	-0.00580955	39	5.2106	0.000127059
2	0	0	1	1	71.8271	-1.18269	-1.1825	-0.196302	4	-0.00590115	39	5.8306	0.000232127
2	0	0	1	1	72.4473	-1.2447	-1.2445	-0.341125	4	-0.00606945	39	6.4508	0.000424531
2	0	0	1	1	73.0673	-1.3067	-1.30651	-0.568148	4	-0.00634252	39	7.0708	0.000742291
2	0	0	0	1	73.5	-1.35006	-1.34982	-0.843608	4	-0.00664368	39	7.5035	0.00113872