File: Fig 2/Fig 2_np-Fe3O4_5mvs.mpt
mode	ox/red	error	control changes	counter inc.	time/s	control/V	Ewe/V	<I>/mA	cycle number	(Q-Qo)/C	I Range	step time/s	P/W
2	1	0	0	0	0.000000000000000E+000	-0.299982	-0.299752	0.157877	1	0.0000000E+000	39	0.000000000000000E+000	-4.73239e-05
2	1	0	1	0	10.511	-0.352537	-0.352302	0.00178384	1	4.38648e-05	39	10.4009	-6.2845e-07
2	1	0	0	0	21.112	-0.405541	-0.405292	0.00109985	1	5.72954e-05	39	21.0019	-4.4576e-07
2	1	0	0	0	31.7128	-0.458546	-0.458346	0.000611318	1	6.50468e-05	39	31.6027	-2.80195e-07
2	1	0	1	0	42.3138	-0.511551	-0.511326	0.000446715	1	6.90379e-05	39	42.2037	-2.28417e-07
2	0	0	0	0	52.9148	-0.564555	-0.564344	0.000104466	1	7.0317e-05	39	1.4002	-5.89547e-08
2	0	0	0	0	63.5156	-0.61756	-0.617348	-0.000236859	1	6.81277e-05	39	12.001	1.46225e-07
2	0	0	1	0	74.1166	-0.670565	-0.67034	-0.000593684	1	6.25991e-05	39	22.602	3.9797e-07
2	0	0	0	0	84.7176	-0.723569	-0.723359	-0.00104971	1	5.23474e-05	39	33.203	7.59317e-07
2	0	0	0	0	95.3184	-0.776574	-0.776375	-0.00203475	1	3.40272e-05	39	43.8038	1.57973e-06
2	0	0	1	0	105.919	-0.829579	-0.829355	-0.00370184	1	1.24817e-06	39	54.4048	3.07014e-06
2	0	0	0	0	116.52	-0.882583	-0.882348	-0.00751341	1	-5.83354e-05	39	65.0058	6.62944e-06
2	0	0	0	0	127.121	-0.935588	-0.935367	-0.00943617	1	-0.00015929	39	75.6066	8.82628e-06
2	0	0	1	0	137.722	-0.988593	-0.98838	-0.010005	1	-0.000260857	39	86.2076	9.88871e-06
2	0	0	0	0	148.323	-1.0416	-1.04139	-0.0146596	1	-0.000390654	39	96.8086	1.52664e-05
2	0	0	0	0	158.924	-1.0946	-1.09436	-0.015245	1	-0.000568632	39	107.409	1.66836e-05
2	0	0	1	0	169.525	-1.14761	-1.14734	-0.0377087	1	-0.00076263	39	118.01	4.32645e-05
2	0	0	0	0	180.126	-1.20061	-1.20038	-0.0361882	1	-0.00113401	39	128.611	4.34397e-05
2	0	0	0	0	190.727	-1.25362	-1.25339	-0.0779274	1	-0.00166647	39	139.212	9.76732e-05
2	0	0	1	0	201.328	-1.30662	-1.30638	-0.358669	1	-0.00353751	39	149.813	0.000468558
2	0	0	0	1	211.709	-1.34142	-1.34122	-3.06641	2	-0.0220427	39	160.195	0.00411271
2	0	0	1	1	222.31	-1.28842	-1.28819	-0.894115	2	-0.041239	39	170.796	0.00115179
2	0	0	1	1	232.911	-1.23541	-1.23516	-0.341428	2	-0.0469999	39	181.396	0.000421718
2	0	0	0	1	243.512	-1.18241	-1.18215	-0.189597	2	-0.0497405	39	191.997	0.000224132
2	0	0	1	1	254.113	-1.1294	-1.12916	-0.0695974	2	-0.0510475	39	202.598	7.85865e-05
2	0	0	1	1	264.714	-1.0764	-1.07618	-0.0260246	2	-0.051508	39	213.199	2.80071e-05
2	1	0	0	1	275.315	-1.0234	-1.02315	0.00675898	2	-0.0515969	39	2.8002	-6.91544e-06
2	1	0	1	1	285.916	-0.970391	-0.970179	0.033103	2	-0.0513991	39	13.4012	-3.21158e-05
2	1	0	1	1	296.517	-0.917386	-0.917157	0.063721	2	-0.0509024	39	24.002	-5.84422e-05
2	1	0	0	1	307.118	-0.864382	-0.864139	0.0481881	2	-0.0502133	39	34.603	-4.16412e-05
2	1	0	1	1	317.719	-0.811377	-0.811119	0.0228208	2	-0.0498525	39	45.204	-1.85104e-05
2	1	0	1	1	328.319	-0.758372	-0.758136	0.0125381	2	-0.0496706	39	55.8048	-9.50559e-06
2	1	0	0	1	338.92	-0.705368	-0.705151	0.00859401	2	-0.0495596	39	66.4058	-6.06008e-06
2	1	0	1	1	349.521	-0.652363	-0.652145	0.00703036	2	-0.0494755	39	77.0068	-4.58481e-06
2	1	0	1	1	360.122	-0.599358	-0.599108	0.00616424	2	-0.049404	39	87.6076	-3.69304e-06
2	1	0	0	1	370.723	-0.546354	-0.54609	0.00564973	2	-0.0493399	39	98.2086	-3.08526e-06
2	1	0	1	1	381.324	-0.493349	-0.493131	0.00533875	2	-0.0492804	39	108.81	-2.6327e-06
2	1	0	1	1	391.925	-0.440344	-0.440101	0.0052615	2	-0.0492231	39	119.41	-2.31559e-06
2	1	0	0	1	402.526	-0.38734	-0.38713	0.00517412	2	-0.0491664	39	130.011	-2.00306e-06
2	1	0	1	1	413.127	-0.334335	-0.334085	0.00525838	2	-0.0491095	39	140.612	-1.75675e-06
2	1	0	0	1	423.508	-0.317534	-0.317305	0.00440249	2	-0.0490552	39	150.994	-1.39693e-06
2	1	0	1	1	434.109	-0.370538	-0.370321	0.00296976	2	-0.0490189	39	161.595	-1.09977e-06
2	1	0	1	1	444.71	-0.423543	-0.423323	0.0023806	2	-0.0489922	39	172.196	-1.00776e-06
2	1	0	0	1	455.311	-0.476547	-0.476315	0.00202641	2	-0.0489703	39	182.797	-9.65211e-07
2	1	0	1	1	465.912	-0.529552	-0.52932	0.00174782	2	-0.048952	39	193.398	-9.25159e-07
2	1	0	1	1	476.513	-0.582557	-0.582303	0.00156448	2	-0.0489358	39	203.998	-9.11003e-07
2	1	0	0	1	487.114	-0.635561	-0.635323	0.00136803	2	-0.0489221	39	214.599	-8.69139e-07
2	1	0	1	1	497.715	-0.688566	-0.688327	0.00132104	2	-0.0489099	39	225.2	-9.09305e-07
2	0	0	1	1	508.316	-0.741571	-0.741314	0.00118856	2	-0.0488989	39	235.801	-8.81097e-07
2	1	0	0	1	518.917	-0.794576	-0.794356	0.00133063	2	-0.0488878	39	246.402	-1.057e-06
2	1	0	1	1	529.518	-0.84758	-0.847343	0.00125741	2	-0.0488768	39	257.003	-1.06546e-06
2	1	0	1	1	540.119	-0.900585	-0.900375	0.0014808	2	-0.0488652	39	267.604	-1.33327e-06
2	0	0	0	1	550.72	-0.95359	-0.953335	0.000515325	2	-0.0488548	39	278.205	-4.91277e-07
2	0	0	1	1	561.321	-1.00659	-1.00637	-0.00320303	2	-0.0488693	39	9.401	3.22342e-06
2	0	0	1	1	571.921	-1.0596	-1.05937	-0.0136272	2	-0.0489366	39	20.0018	1.44363e-05
2	0	0	0	1	582.522	-1.1126	-1.11238	-0.019134	2	-0.0491469	39	30.6028	2.12842e-05
2	0	0	1	1	593.123	-1.16561	-1.16537	-0.0192313	2	-0.0493422	39	41.2038	2.24116e-05
2	0	0	1	1	603.724	-1.21861	-1.21838	-0.0328973	2	-0.0495969	39	51.8046	4.00814e-05
2	0	0	0	1	614.325	-1.27162	-1.27141	-0.102476	2	-0.0502459	39	62.4056	0.000130288
2	0	0	1	1	624.926	-1.32462	-1.32437	-0.333458	2	-0.0523167	39	73.0066	0.000441621
2	0	0	0	0	635.308	-1.32342	-1.32319	-0.56357	3	-0.0588383	39	83.388	0.000745709
2	0	0	0	0	645.908	-1.27042	-1.27016	-0.208227	3	-0.0624698	39	93.9888	0.000264482
2	0	0	1	0	656.509	-1.21741	-1.21716	-0.1163	3	-0.0641109	39	104.59	0.000141556
2	0	0	0	0	667.11	-1.16441	-1.16416	-0.0572128	3	-0.0650251	39	115.191	6.66049e-05
2	0	0	0	0	677.711	-1.1114	-1.11113	-0.0198394	3	-0.0653949	39	125.792	2.20441e-05
2	0	0	1	0	688.312	-1.0584	-1.05815	-0.00612723	3	-0.0655281	39	136.393	6.48352e-06
2	1	0	1	0	698.913	-1.00539	-1.00512	0.00537197	3	-0.0655262	39	5.6006	-5.39947e-06
2	1	0	0	0	709.514	-0.952389	-0.952132	0.0250541	3	-0.0653581	39	16.2014	-2.38548e-05
2	1	0	1	0	720.115	-0.899385	-0.899146	0.0329249	3	-0.0650574	39	26.8024	-2.96043e-05
2	1	0	1	0	730.716	-0.84638	-0.846105	0.0217178	3	-0.0647408	39	37.4034	-1.83756e-05
2	1	0	0	0	741.317	-0.793375	-0.793107	0.00833028	3	-0.0645907	39	48.0042	-6.6068e-06
2	1	0	1	0	751.918	-0.740371	-0.740114	0.00425589	3	-0.0645266	39	58.6052	-3.14984e-06
2	1	0	0	0	762.519	-0.687366	-0.687119	0.00277595	3	-0.0644888	39	69.2062	-1.90741e-06
2	1	0	0	0	773.12	-0.634361	-0.634116	0.00223201	3	-0.0644608	39	79.807	-1.41535e-06
2	1	0	1	0	783.721	-0.581357	-0.581127	0.00188489	3	-0.064438	39	90.408	-1.09536e-06
2	1	0	1	0	794.321	-0.528353	-0.528109	0.00173671	3	-0.0644175	39	101.009	-9.1717e-07
2	1	0	0	0	804.922	-0.475347	-0.475121	0.00158101	3	-0.0643988	39	111.61	-7.51172e-07
2	0	0	1	0	815.523	-0.422343	-0.422103	0.00168764	3	-0.0643803	39	122.211	-7.12357e-07
2	0	0	1	0	826.124	-0.369338	-0.369104	0.0017638	3	-0.064361	39	132.812	-6.51025e-07
2	1	0	0	0	836.725	-0.316333	-0.316103	0.00195524	3	-0.0643401	39	143.413	-6.18057e-07
2	1	0	1	0	847.107	-0.335535	-0.335295	0.00125567	3	-0.0643234	39	153.794	-4.21018e-07
2	0	0	0	0	857.708	-0.38854	-0.388316	0.000747811	3	-0.0643147	39	164.395	-2.90387e-07
2	1	0	1	0	868.309	-0.441544	-0.441324	0.000616197	3	-0.0643088	39	174.996	-2.71943e-07
2	0	0	1	0	878.909	-0.494549	-0.494313	0.000504562	3	-0.0643044	39	185.597	-2.49411e-07
2	1	0	0	0	889.51	-0.547554	-0.547339	0.000336896	3	-0.0643016	39	196.198	-1.84397e-07
2	1	0	1	0	900.111	-0.600558	-0.600307	0.000362927	3	-0.0642994	39	206.799	-2.17868e-07
2	1	0	1	0	910.712	-0.653563	-0.653333	0.000322869	3	-0.0642977	39	217.4	-2.10941e-07
2	1	0	0	0	921.313	-0.706568	-0.706338	0.000272078	3	-0.0642968	39	228.001	-1.92179e-07
2	1	0	1	0	931.914	-0.759572	-0.759317	0.000138836	3	-0.0642967	39	0.000000000000000E+000	-1.05421e-07
2	0	0	1	0	942.515	-0.812577	-0.812366	0.000330416	3	-0.0642956	39	9.0008	-2.68419e-07
2	1	0	0	0	953.116	-0.865582	-0.865358	0.000270382	3	-0.0642947	39	19.6017	-2.33977e-07
2	1	0	1	0	963.717	-0.918586	-0.918367	0.000479992	3	-0.0642934	39	30.2027	-4.40809e-07
2	1	0	1	0	974.318	-0.971591	-0.971366	-0.000123035	3	-0.0642927	39	3.2003	1.19512e-07
2	0	0	0	0	984.919	-1.0246	-1.02437	-0.00226831	3	-0.0643085	39	13.8012	2.32359e-06
2	0	0	1	0	995.52	-1.0776	-1.07737	-0.0077133	3	-0.0643614	39	24.4022	8.31011e-06
2	0	0	1	0	1006.12	-1.1306	-1.13037	-0.00883757	3	-0.0644581	39	35.003	9.98973e-06
2	0	0	0	0	1016.72	-1.18361	-1.18336	-0.0131039	3	-0.0645778	39	45.604	1.55067e-05
2	0	0	1	0	1027.32	-1.23661	-1.23635	-0.0273917	3	-0.064772	39	56.205	3.38656e-05
2	0	0	1	0	1037.92	-1.28962	-1.28935	-0.0853651	3	-0.0653145	39	66.8058	0.000110065
2	0	0	0	0	1048.52	-1.34262	-1.34239	-0.265425	3	-0.0669908	39	77.4068	0.000356303
2	0	0	1	1	1058.91	-1.30542	-1.30517	-0.161409	4	-0.0694758	39	87.7882	0.000210666
2	0	0	0	1	1069.51	-1.25242	-1.25217	-0.0889459	4	-0.0707354	39	98.3892	0.000111376
2	0	0	1	1	1080.11	-1.19941	-1.19915	-0.05172	4	-0.0714689	39	108.99	6.20201e-05
2	0	0	1	1	1090.71	-1.14641	-1.14617	-0.0211171	4	-0.071843	39	119.591	2.42038e-05
2	0	0	0	1	1101.31	-1.0934	-1.09319	-0.00816019	4	-0.0719821	39	130.192	8.9206e-06
2	0	0	0	1	1111.91	-1.0404	-1.04017	-0.00104013	4	-0.0720274	39	140.793	1.08191e-06
2	1	0	1	1	1122.51	-0.987392	-0.987159	0.0077308	4	-0.0720006	39	8.8008	-7.63153e-06
2	1	0	0	1	1133.11	-0.934388	-0.934172	0.0176419	4	-0.0718517	39	19.4018	-1.64805e-05
2	1	0	1	1	1143.71	-0.881383	-0.881165	0.0189812	4	-0.0716563	39	30.0026	-1.67256e-05
2	1	0	1	1	1154.31	-0.828378	-0.828162	0.0103931	4	-0.0714857	39	40.6036	-8.6072e-06
2	1	0	0	1	1164.92	-0.775374	-0.775136	0.00387312	4	-0.0714155	39	51.2046	-3.0022e-06
2	1	0	1	1	1175.52	-0.722369	-0.722135	0.00199701	4	-0.0713845	39	61.8055	-1.44211e-06
2	1	0	1	1	1186.12	-0.669364	-0.669099	0.00120257	4	-0.0713661	39	72.4064	-8.04638e-07
2	1	0	0	1	1196.72	-0.61636	-0.616108	0.000938479	4	-0.071353	39	83.0074	-5.78204e-07
2	0	0	1	1	1207.32	-0.563355	-0.563132	0.000860338	4	-0.0713426	39	93.6083	-4.84484e-07
2	0	0	1	1	1217.92	-0.51035	-0.510141	0.000814641	4	-0.0713327	39	104.209	-4.15582e-07
2	1	0	0	1	1228.52	-0.457346	-0.457115	0.000748	4	-0.0713232	39	114.81	-3.41922e-07
2	1	0	0	1	1236.34	-0.418192	-0.417906	0.00119996	4	-0.0713161	39	122.629	-5.01469e-07