File: Fig 2/Fig 2_np-Fe3O4_25mvs.mpt
mode	ox/red	error	control changes	counter inc.	time/s	control/V	Ewe/V	<I>/mA	cycle number	(Q-Qo)/C	I Range	step time/s	P/W
2	1	1	0	0	0.000000000000000E+000	-0.30003	-0.299857	0.62221	1	0.0000000E+000	39	0.000000000000000E+000	-0.000186574
2	1	0	0	0	2.4624	-0.361587	-0.361394	0.00427962	1	2.63056e-05	39	2.4403	-1.54663e-06
2	1	0	1	0	4.9426	-0.423594	-0.42338	0.00223706	1	3.21362e-05	39	4.9205	-9.47126e-07
2	1	0	1	0	7.423	-0.485602	-0.485402	0.00121695	1	3.42855e-05	39	7.4009	-5.90711e-07
2	1	0	0	0	9.9032	-0.547609	-0.547402	0.000443318	1	3.40813e-05	39	1.36	-2.42673e-07
2	1	0	0	0	12.3836	-0.609616	-0.609391	-0.000536652	1	3.15981e-05	39	3.8404	3.27031e-07
2	0	0	1	0	14.8638	-0.671624	-0.67144	-0.00171776	1	2.63825e-05	39	6.3206	1.15337e-06
2	0	0	1	0	17.3442	-0.733631	-0.733445	-0.00370721	1	1.70517e-05	39	8.801	2.71904e-06
2	0	0	0	0	19.8244	-0.795638	-0.795441	-0.0073157	1	7.27576e-07	39	11.2812	5.81921e-06
2	0	0	0	0	22.3048	-0.857646	-0.857453	-0.0123381	1	-2.68424e-05	39	13.7616	1.05793e-05
2	0	0	1	0	24.785	-0.919653	-0.919439	-0.017118	1	-6.61403e-05	39	16.2418	1.5739e-05
2	0	0	1	0	27.2654	-0.98166	-0.981446	-0.0220072	1	-0.000118254	39	18.7222	2.15989e-05
2	0	0	0	0	29.7456	-1.04367	-1.04349	-0.0236619	1	-0.000178502	39	21.2024	2.46911e-05
2	0	0	1	0	32.2259	-1.10568	-1.10548	-0.0298784	1	-0.000245355	39	23.6827	3.303e-05
2	0	0	1	0	34.7062	-1.16768	-1.16747	-0.112215	1	-0.000367214	39	26.163	0.000131008
2	0	0	0	0	37.1864	-1.22969	-1.22948	-0.327388	1	-0.00111447	39	28.6432	0.000402517
2	0	0	0	0	39.6668	-1.2917	-1.29148	-1.08899	1	-0.00247139	39	31.1236	0.00140641
2	0	0	0	1	42.0996	-1.3474	-1.34721	-4.61535	2	-0.0098429	39	33.5564	0.00621783
2	0	0	1	1	44.5798	-1.2854	-1.28521	-1.44534	2	-0.0165843	39	36.0366	0.00185757
2	0	0	1	1	47.0602	-1.22339	-1.2232	-0.52736	2	-0.0187854	39	38.517	0.000645064
2	0	0	0	1	49.5404	-1.16138	-1.16118	-0.210063	2	-0.0196423	39	40.9972	0.000243921
2	0	0	0	1	52.0208	-1.09937	-1.09917	-0.0591219	2	-0.0199464	39	43.4776	6.49848e-05
2	1	0	1	1	54.501	-1.03737	-1.03715	0.0141908	2	-0.0199906	39	0.56	-1.4718e-05
2	1	0	1	1	56.9814	-0.97536	-0.975157	0.0461315	2	-0.0199034	39	3.0404	-4.49855e-05
2	1	0	0	1	59.4616	-0.913352	-0.913153	0.136302	2	-0.0196912	39	5.5206	-0.000124465
2	1	0	1	1	61.9419	-0.851347	-0.851153	0.161145	2	-0.0192799	39	8.0009	-0.000137159
2	1	0	1	1	64.4222	-0.789338	-0.789135	0.115422	2	-0.0189339	39	10.4812	-9.10834e-05
2	1	0	0	1	66.9024	-0.72733	-0.7271	0.0837698	2	-0.0186875	39	12.9614	-6.0909e-05
2	1	0	0	1	69.3828	-0.665323	-0.665121	0.0676667	2	-0.0184999	39	15.4418	-4.50066e-05
2	1	0	1	1	71.863	-0.603316	-0.603106	0.0615452	2	-0.0183378	39	17.922	-3.71183e-05
2	1	0	1	1	74.3434	-0.541308	-0.541108	0.0560235	2	-0.0181889	39	20.4024	-3.03148e-05
2	1	0	0	1	76.8236	-0.479301	-0.479109	0.0495924	2	-0.0180555	39	22.8826	-2.37602e-05
2	1	0	0	1	79.304	-0.417294	-0.417095	0.0443951	2	-0.017937	39	25.363	-1.8517e-05
2	1	0	1	1	81.7842	-0.355286	-0.355068	0.0409847	2	-0.017829	39	27.8432	-1.45524e-05
2	1	0	0	1	84.2172	-0.30558	-0.305392	0.0353986	2	-0.0177308	39	30.2762	-1.08104e-05
2	1	0	1	1	86.6974	-0.367588	-0.367388	0.0198734	2	-0.0176679	39	32.7564	-7.30127e-06
2	1	0	1	1	89.1778	-0.429595	-0.429398	0.0134171	2	-0.0176296	39	35.2368	-5.76128e-06
2	1	0	0	1	91.658	-0.491602	-0.491383	0.00978455	2	-0.0176035	39	37.717	-4.80796e-06
2	1	0	1	1	94.1382	-0.55361	-0.553402	0.00740981	2	-0.0175849	39	40.1972	-4.10061e-06
2	1	0	1	1	96.6186	-0.615617	-0.615416	0.00557807	2	-0.0175715	39	42.6776	-3.43283e-06
2	1	0	0	1	99.0988	-0.677624	-0.677412	0.00394911	2	-0.0175624	39	45.1578	-2.67517e-06
2	1	0	0	1	101.579	-0.739632	-0.73944	0.00144335	2	-0.0175583	39	47.6382	-1.06727e-06
2	0	0	1	1	104.059	-0.801639	-0.801438	-0.00472283	2	-0.0175642	39	2.2402	3.78506e-06
2	0	0	1	1	106.54	-0.863646	-0.863442	-0.015639	2	-0.0175936	39	4.7206	1.35033e-05
2	0	0	0	1	109.02	-0.925654	-0.925468	-0.0170096	2	-0.0176393	39	7.2008	1.57419e-05
2	0	0	0	1	111.5	-0.987661	-0.987482	-0.0243239	2	-0.0176915	39	9.6812	2.40194e-05
2	0	0	1	1	113.981	-1.04967	-1.04949	-0.0461332	2	-0.017778	39	12.1614	4.84163e-05
2	0	0	1	1	116.461	-1.11168	-1.11148	-0.113631	2	-0.0179622	39	14.6418	0.000126298
2	0	0	0	1	118.941	-1.17368	-1.17347	-0.276783	2	-0.0184329	39	17.122	0.000324795
2	0	0	0	1	121.422	-1.23569	-1.23548	-0.518593	2	-0.0193682	39	19.6024	0.000640714
2	0	0	1	1	123.902	-1.2977	-1.2975	-1.24663	2	-0.0213918	39	22.0826	0.00161751
2	0	0	1	0	126.335	-1.3414	-1.3412	-2.51193	3	-0.0264075	39	24.5154	0.00336901
2	0	0	0	0	128.815	-1.2794	-1.27919	-0.956652	3	-0.0304237	39	26.9956	0.00122374
2	0	0	0	0	131.295	-1.21739	-1.21718	-0.385418	3	-0.0319664	39	29.476	0.000469122
2	0	0	1	0	133.775	-1.15538	-1.15518	-0.151063	3	-0.0325922	39	31.9562	0.000174505
2	0	0	1	0	136.256	-1.09337	-1.09319	-0.0383185	3	-0.0328038	39	34.4366	4.18892e-05
2	1	0	0	0	138.736	-1.03137	-1.03119	0.0124336	3	-0.0328248	39	0.8	-1.28214e-05
2	1	0	0	0	141.216	-0.969359	-0.969157	0.0397604	3	-0.0327648	39	3.2804	-3.85341e-05
2	1	0	1	0	143.697	-0.907351	-0.90715	0.143394	3	-0.032548	39	5.7606	-0.00013008
2	1	0	1	0	146.177	-0.845344	-0.845153	0.159398	3	-0.0321086	39	8.241	-0.000134715
2	1	0	0	0	148.657	-0.783337	-0.783129	0.0902093	3	-0.0318085	39	10.7212	-7.06456e-05
2	1	0	0	0	151.138	-0.72133	-0.721144	0.0586447	3	-0.0316257	39	13.2016	-4.22913e-05
2	1	0	1	0	153.618	-0.659322	-0.65911	0.0435544	3	-0.0314989	39	15.6818	-2.87072e-05
2	1	0	1	0	156.098	-0.597317	-0.59711	0.0362474	3	-0.0313983	39	18.1621	-2.16437e-05
2	1	0	0	0	158.578	-0.535308	-0.535103	0.0315285	3	-0.0313118	39	20.6424	-1.6871e-05
2	1	0	1	0	161.059	-0.4733	-0.473088	0.0279306	3	-0.0312356	39	23.1226	-1.32137e-05
2	1	0	1	0	163.539	-0.411293	-0.41109	0.0258645	3	-0.0311668	39	25.603	-1.06326e-05
2	1	0	0	0	166.019	-0.349286	-0.349105	0.0242445	3	-0.0311025	39	28.0832	-8.46388e-06
2	1	0	1	0	168.452	-0.311581	-0.31137	0.0200923	3	-0.0310444	39	30.5162	-6.25613e-06
2	1	0	0	0	170.932	-0.373588	-0.373388	0.0127736	3	-0.0310074	39	32.9964	-4.76949e-06
2	1	0	0	0	173.413	-0.435596	-0.4354	0.0093655	3	-0.0309827	39	35.4768	-4.07774e-06
2	1	0	1	0	175.893	-0.497603	-0.497404	0.00745113	3	-0.0309643	39	37.957	-3.70622e-06
2	1	0	1	0	178.373	-0.55961	-0.559395	0.00616827	3	-0.0309498	39	40.4374	-3.4505e-06
2	1	0	0	0	180.854	-0.621618	-0.621425	0.00507947	3	-0.0309384	39	42.9176	-3.15651e-06
2	1	0	0	0	183.334	-0.683625	-0.683429	0.00381596	3	-0.0309299	39	45.398	-2.60794e-06
2	1	0	1	0	185.814	-0.745632	-0.74544	0.00171603	3	-0.0309254	39	47.8782	-1.2792e-06
2	0	0	0	0	188.294	-0.80764	-0.807436	-0.00397516	3	-0.0309299	39	2.0002	3.20969e-06
2	0	0	0	0	190.775	-0.869647	-0.869461	-0.013154	3	-0.0309551	39	4.4806	1.14369e-05
2	0	0	1	0	193.255	-0.931654	-0.931459	-0.0138691	3	-0.0309932	39	6.9608	1.29185e-05
2	0	0	1	0	195.735	-0.993662	-0.993463	-0.0189391	3	-0.031036	39	9.4412	1.88153e-05
2	0	0	0	0	198.216	-1.05567	-1.05549	-0.0312361	3	-0.0311003	39	11.9214	3.29693e-05
2	0	0	0	0	200.696	-1.11768	-1.11747	-0.0937613	3	-0.0312355	39	14.4018	0.000104776
2	0	0	1	0	203.176	-1.17968	-1.17948	-0.172873	3	-0.0315955	39	16.882	0.0002039
2	0	0	1	0	205.657	-1.24169	-1.24146	-0.306363	3	-0.0321536	39	19.3624	0.000380337
2	0	0	0	0	208.137	-1.3037	-1.3035	-0.787624	3	-0.0333993	39	21.8426	0.00102666
2	0	0	0	1	210.57	-1.3354	-1.33521	-1.41725	4	-0.0366107	39	24.2754	0.00189232
2	0	0	0	1	213.05	-1.27339	-1.27319	-0.519955	4	-0.0388085	39	26.7558	0.000662001
2	0	0	1	1	215.53	-1.21139	-1.21119	-0.219464	4	-0.0396565	39	29.236	0.000265813
2	0	0	1	1	218.01	-1.14938	-1.14919	-0.0880369	4	-0.0400186	39	31.7163	0.000101171
2	0	0	0	1	220.491	-1.08737	-1.08719	-0.0206146	4	-0.0401382	39	34.1966	2.24119e-05
2	1	0	1	1	222.971	-1.02537	-1.02516	0.00889972	4	-0.040143	39	1.12	-9.12363e-06
2	1	0	1	1	225.451	-0.963358	-0.963182	0.0358594	4	-0.0400967	39	3.6004	-3.45391e-05
2	1	0	0	1	227.932	-0.901351	-0.901171	0.131067	4	-0.0398973	39	6.0806	-0.000118114
2	1	0	0	1	230.412	-0.839343	-0.839157	0.119091	4	-0.0395152	39	8.561	-9.99358e-05
2	1	0	1	1	232.892	-0.777336	-0.777118	0.0583425	4	-0.0393064	39	11.0412	-4.5339e-05
2	1	0	1	1	235.373	-0.715329	-0.715116	0.0348535	4	-0.0391923	39	13.5216	-2.49243e-05
2	1	0	0	1	237.853	-0.653321	-0.653119	0.0251867	4	-0.0391172	39	16.0018	-1.64499e-05
2	1	0	0	1	240.333	-0.591314	-0.59111	0.0209058	4	-0.0390583	39	18.4822	-1.23576e-05
2	1	0	1	1	242.813	-0.529307	-0.529094	0.0178408	4	-0.0390082	39	20.9624	-9.43945e-06
2	1	0	1	1	245.294	-0.4673	-0.467106	0.0155385	4	-0.0389646	39	23.4428	-7.25815e-06
2	1	0	0	1	247.774	-0.405292	-0.405111	0.0144172	4	-0.0389254	39	25.923	-5.84054e-06
2	1	0	1	1	250.254	-0.343286	-0.343097	0.0138458	4	-0.0388884	39	28.4033	-4.75045e-06
2	1	0	0	1	252.687	-0.317582	-0.317377	0.0105733	4	-0.0388556	39	30.8362	-3.35572e-06
2	1	0	1	1	255.167	-0.379589	-0.379407	0.0062882	4	-0.0388379	39	33.3164	-2.38578e-06
2	1	0	1	1	257.648	-0.441597	-0.441418	0.00408816	4	-0.0388273	39	35.7968	-1.80459e-06
2	1	0	0	1	260.128	-0.503604	-0.503416	0.002891	4	-0.0388209	39	38.277	-1.45538e-06
2	1	0	0	1	262.608	-0.565611	-0.565421	0.00199744	4	-0.0388172	39	40.7574	-1.12939e-06
2	1	0	1	1	265.089	-0.627618	-0.627433	0.00117092	4	-0.0388157	39	43.2376	-7.34672e-07
2	1	0	1	1	267.569	-0.689626	-0.689441	8.06986e-05	4	-0.0388166	39	1.9603	-5.56369e-08
2	0	0	0	1	270.049	-0.751633	-0.751422	-0.00167267	4	-0.038821	39	4.4405	1.25688e-06
2	0	0	0	1	272.53	-0.81364	-0.813453	-0.00658503	4	-0.038833	39	6.9209	5.35662e-06
2	0	0	1	1	275.01	-0.875648	-0.875466	-0.0130994	4	-0.0388616	39	9.4011	1.14681e-05
2	0	0	1	1	277.49	-0.937655	-0.937482	-0.0117774	4	-0.038896	39	11.8815	1.10411e-05
2	0	0	0	1	279.97	-0.999662	-0.999472	-0.0159961	4	-0.0389322	39	14.3617	1.59877e-05
2	0	0	1	1	282.451	-1.06167	-1.06149	-0.0255829	4	-0.0389859	39	16.8419	2.7156e-05
2	0	0	1	1	284.931	-1.12368	-1.12351	-0.0794128	4	-0.0391007	39	19.3223	8.92213e-05
2	0	0	0	1	287.411	-1.18568	-1.18548	-0.105789	4	-0.0393482	39	21.8025	0.000125412
2	0	0	0	1	289.892	-1.24769	-1.24751	-0.192657	4	-0.0396968	39	24.2829	0.000240341
2	0	0	1	1	292.372	-1.3097	-1.3095	-0.523212	4	-0.0405022	39	26.7631	0.000685144
2	0	0	0	1	293.982	-1.34995	-1.34974	-1.10238	4	-0.0417538	39	28.3733	0.00148793