File: Fig 2/Fig 2_np-Fe3O4_500mvs.mpt
mode	ox/red	error	control changes	counter inc.	time/s	control/V	Ewe/V	<I>/mA	cycle number	(Q-Qo)/C	I Range	step time/s	P/W
2	1	1	0	0	0.000000000000000E+000	-0.299969	-0.299578	7.61869	1	0.0000000E+000	38	0.000000000000000E+000	-0.0022824
2	0	0	1	0	0.1157	-0.357826	-0.357607	-0.0137723	1	1.20188e-05	38	0.034	4.92508e-06
2	0	0	1	0	0.2357	-0.417833	-0.417608	-0.0294888	1	9.31603e-06	38	0.154	1.23147e-05
2	0	0	1	0	0.3557	-0.47784	-0.477614	-0.0351382	1	5.46202e-06	38	0.274	1.67825e-05
2	0	0	1	0	0.4757	-0.537847	-0.537619	-0.0394708	1	9.48033e-07	38	0.394	2.12203e-05
2	0	0	1	0	0.5957	-0.597853	-0.597628	-0.0458211	1	-4.18206e-06	38	0.514	2.7384e-05
2	0	0	1	0	0.7157	-0.65786	-0.657638	-0.0507059	1	-9.90837e-06	38	0.634	3.33461e-05
2	0	0	1	0	0.8357	-0.717867	-0.717639	-0.0580332	1	-1.63584e-05	38	0.754	4.16469e-05
2	0	0	1	0	0.9557	-0.777874	-0.777646	-0.0700329	1	-2.3937e-05	38	0.874	5.44608e-05
2	0	0	1	0	1.0757	-0.837881	-0.83766	-0.0888289	1	-3.3365e-05	38	0.994	7.44084e-05
2	0	0	1	0	1.1957	-0.897888	-0.897681	-0.119858	1	-4.58534e-05	38	1.114	0.000107594
2	0	0	1	0	1.3157	-0.957895	-0.957677	-0.161931	1	-6.26293e-05	38	1.234	0.000155078
2	0	0	1	0	1.4357	-1.0179	-1.0177	-0.223778	1	-8.53977e-05	38	1.354	0.000227738
2	0	0	1	0	1.5557	-1.07791	-1.0777	-0.301786	1	-0.000116961	38	1.474	0.000325234
2	0	0	1	0	1.6757	-1.13792	-1.13767	-0.406343	1	-0.000158541	38	1.594	0.000462286
2	0	0	1	0	1.7961	-1.19802	-1.1978	-3.16362	1	-0.000285264	38	1.7144	0.00378938
2	0	0	1	0	1.9161	-1.25803	-1.25781	-9.77021	1	-0.0011146	38	1.8344	0.012289
2	0	0	1	0	2.0361	-1.31804	-1.3178	-10.6654	1	-0.00233368	38	1.9544	0.0140549
2	0	0	1	1	2.1495	-1.32524	-1.32502	-10.1119	2	-0.00372356	38	2.0678	0.0133985
2	0	0	1	1	2.2695	-1.26523	-1.26501	-3.36502	2	-0.00448966	38	2.1878	0.00425678
2	0	0	1	1	2.3895	-1.20522	-1.20503	-0.909778	2	-0.00471251	38	2.3078	0.00109631
2	0	0	1	1	2.5099	-1.14512	-1.14491	-0.219573	2	-0.00477385	38	2.4282	0.00025139
2	1	0	1	1	2.6299	-1.08511	-1.08491	0.0908056	2	-0.00477964	38	0.04	-9.85163e-05
2	1	0	1	1	2.7499	-1.0251	-1.0249	0.395258	2	-0.00475262	38	0.16	-0.000405102
2	1	0	1	1	2.8699	-0.965095	-0.96491	0.685842	2	-0.0046808	38	0.28	-0.000661775
2	1	0	1	1	2.9899	-0.905089	-0.904893	0.668894	2	-0.00460212	38	0.4	-0.000605277
2	1	0	1	1	3.1099	-0.845082	-0.844877	0.722924	2	-0.00451746	38	0.52	-0.000610782
2	1	0	1	1	3.2299	-0.785075	-0.784849	0.658232	2	-0.00443431	38	0.64	-0.000516613
2	1	0	1	1	3.3499	-0.725068	-0.724845	0.600336	2	-0.00435914	38	0.76	-0.000435151
2	1	0	1	1	3.4699	-0.665061	-0.664854	0.569158	2	-0.00428925	38	0.88	-0.000378407
2	1	0	1	1	3.5899	-0.605054	-0.604832	0.56816	2	-0.00422148	38	1	-0.000343641
2	1	0	1	1	3.7099	-0.545047	-0.54484	0.601483	2	-0.00415151	38	1.12	-0.000327712
2	1	0	1	1	3.8299	-0.485041	-0.484831	0.615415	2	-0.00407797	38	1.24	-0.000298372
2	1	0	1	1	3.9499	-0.425034	-0.424823	0.569732	2	-0.00400645	38	1.36	-0.000242035
2	1	0	1	1	4.0699	-0.365027	-0.364802	0.480828	2	-0.0039431	38	1.48	-0.000175407
2	1	0	1	1	4.1899	-0.30502	-0.304828	0.418514	2	-0.00388949	38	1.6	-0.000127575
2	1	0	1	1	4.3037	-0.351625	-0.351419	0.151271	2	-0.00385981	38	1.7138	-5.31597e-05
2	1	0	1	1	4.4237	-0.411632	-0.411413	0.0566967	2	-0.00384806	38	1.8338	-2.33257e-05
2	1	0	1	1	4.5437	-0.471639	-0.471431	0.0143261	2	-0.00384418	38	1.9538	-6.75376e-06
2	0	0	1	1	4.6637	-0.531646	-0.531439	-0.00880255	2	-0.00384398	38	0.05	4.67802e-06
2	0	0	1	1	4.7837	-0.591653	-0.591416	-0.023096	2	-0.00384589	38	0.17	1.36593e-05
2	0	0	1	1	4.9037	-0.65166	-0.65144	-0.0359877	2	-0.0038493	38	0.29	2.34439e-05
2	0	0	1	1	5.0237	-0.711666	-0.711443	-0.0500475	2	-0.00385433	38	0.41	3.5606e-05
2	0	0	1	1	5.1437	-0.771673	-0.771431	-0.0800999	2	-0.00386193	38	0.53	6.17916e-05
2	0	0	1	1	5.2637	-0.83168	-0.831456	-0.157854	2	-0.00387559	38	0.65	0.000131248
2	0	0	1	1	5.3837	-0.891687	-0.891477	-0.25846	2	-0.0039013	38	0.77	0.000230411
2	0	0	1	1	5.5037	-0.951694	-0.951477	-0.274346	2	-0.00393368	38	0.89	0.000261034
2	0	0	1	1	5.6237	-1.0117	-1.01148	-0.350847	2	-0.00396953	38	1.01	0.000354876
2	0	0	1	1	5.7437	-1.07171	-1.0715	-0.700325	2	-0.00402915	38	1.13	0.000750396
2	0	0	1	1	5.8637	-1.13171	-1.1315	-2.00876	2	-0.0041722	38	1.25	0.00227291
2	0	0	1	1	5.9841	-1.19182	-1.19159	-1.48288	2	-0.0043808	38	1.3704	0.00176699
2	0	0	1	1	6.1041	-1.25183	-1.25158	-1.84291	2	-0.00457634	38	1.4904	0.00230656
2	0	0	1	1	6.2241	-1.31184	-1.3116	-5.02912	2	-0.00494072	38	1.6104	0.00659618
2	0	0	1	0	6.3379	-1.33124	-1.33101	-6.43106	3	-0.00573189	38	1.7242	0.00855979
2	0	0	1	0	6.4579	-1.27123	-1.27099	-2.10571	3	-0.0062056	38	1.8442	0.00267634
2	0	0	1	0	6.5779	-1.21122	-1.211	-0.686435	3	-0.00635537	38	1.9642	0.000831272
2	0	0	1	0	6.6983	-1.15112	-1.15091	-0.200331	3	-0.00640503	38	2.0846	0.000230562
2	1	0	1	0	6.8183	-1.09111	-1.0909	0.0760661	3	-0.00641122	38	0.038	-8.29803e-05
2	1	0	1	0	6.9383	-1.0311	-1.0309	0.330608	3	-0.00638807	38	0.158	-0.000340824
2	1	0	1	0	7.0583	-0.971096	-0.970896	0.669382	3	-0.00632449	38	0.278	-0.0006499
2	1	0	1	0	7.1783	-0.911089	-0.910881	0.702726	3	-0.00624388	38	0.398	-0.0006401
2	1	0	1	0	7.2983	-0.851082	-0.850877	0.817456	3	-0.00615188	38	0.518	-0.000695554
2	1	0	1	0	7.4183	-0.791075	-0.790845	0.765082	3	-0.00605545	38	0.638	-0.000605061
2	1	0	1	0	7.5383	-0.731069	-0.730826	0.672993	3	-0.00596941	38	0.758	-0.00049184
2	1	0	1	0	7.6583	-0.671062	-0.670834	0.614842	3	-0.00589247	38	0.878	-0.000412457
2	1	0	1	0	7.7783	-0.611055	-0.610813	0.585278	3	-0.00582086	38	0.998	-0.000357495
2	1	0	1	0	7.8983	-0.551048	-0.550798	0.580351	3	-0.00575107	38	1.118	-0.000319656
2	1	0	1	0	8.0183	-0.491041	-0.490822	0.567289	3	-0.00568188	38	1.238	-0.000278438
2	1	0	1	0	8.1383	-0.431034	-0.430798	0.513683	3	-0.00561652	38	1.358	-0.000221294
2	1	0	1	0	8.2583	-0.371028	-0.370789	0.449862	3	-0.00555884	38	1.478	-0.000166804
2	1	0	1	0	8.3783	-0.311021	-0.310793	0.404327	3	-0.00550765	38	1.598	-0.000125662
2	1	0	1	0	8.4921	-0.345625	-0.34539	0.198675	3	-0.00547407	38	1.7118	-6.86205e-05
2	1	0	1	0	8.6121	-0.405631	-0.405401	0.106373	3	-0.00545646	38	1.8318	-4.31238e-05
2	1	0	1	0	8.7321	-0.465638	-0.46541	0.0549976	3	-0.00544705	38	1.9518	-2.55964e-05
2	1	0	1	0	8.8521	-0.525645	-0.525416	0.0241807	3	-0.00544241	38	2.0718	-1.27049e-05
2	1	0	1	0	8.9721	-0.585652	-0.585434	0.00202904	3	-0.00544084	38	2.1918	-1.18787e-06
2	0	0	1	0	9.0921	-0.645659	-0.645435	-0.0124556	3	-0.00544151	38	0.092	8.03925e-06
2	0	0	1	0	9.2121	-0.705666	-0.705434	-0.030487	3	-0.00544415	38	0.212	2.15065e-05
2	0	0	1	0	9.3321	-0.765673	-0.765424	-0.061941	3	-0.00544947	38	0.332	4.74111e-05
2	0	0	1	0	9.4521	-0.825679	-0.82547	-0.150399	3	-0.00546138	38	0.452	0.00012415
2	0	0	1	0	9.5721	-0.885686	-0.885485	-0.278488	3	-0.00548747	38	0.572	0.000246597
2	0	0	1	0	9.6921	-0.945693	-0.945491	-0.297093	3	-0.00552279	38	0.692	0.000280899
2	0	0	1	0	9.8121	-1.0057	-1.00548	-0.32122	3	-0.00555893	38	0.812	0.00032298
2	0	0	1	0	9.9321	-1.06571	-1.06549	-0.488982	3	-0.00560596	38	0.932	0.000521006
2	0	0	1	0	10.0521	-1.12571	-1.12549	-1.01555	3	-0.00568709	38	1.052	0.00114298
2	0	0	1	0	10.1725	-1.18582	-1.18559	-1.84807	3	-0.00586591	38	1.1724	0.00219105
2	0	0	1	0	10.2925	-1.24583	-1.24559	-1.82658	3	-0.0060979	38	1.2924	0.00227517
2	0	0	1	0	10.4125	-1.30583	-1.30559	-2.89406	3	-0.00635475	38	1.4124	0.00377847
2	0	0	1	1	10.5263	-1.33724	-1.337	-4.68599	4	-0.00684918	38	1.5262	0.00626518
2	0	0	1	1	10.6463	-1.27723	-1.27701	-1.64458	4	-0.00720299	38	1.6462	0.00210015
2	0	0	1	1	10.7663	-1.21722	-1.21698	-0.579394	4	-0.00732412	38	1.7662	0.000705112
2	0	0	1	1	10.8867	-1.15712	-1.15688	-0.192663	4	-0.00736764	38	1.8866	0.000222889
2	1	0	1	1	11.0067	-1.09711	-1.09689	0.0432315	4	-0.00737554	38	0.024	-4.74202e-05
2	1	0	1	1	11.1267	-1.0371	-1.0369	0.243382	4	-0.00735881	38	0.144	-0.000252364
2	1	0	1	1	11.2467	-0.977097	-0.976873	0.540741	4	-0.00731096	38	0.264	-0.000528235
2	1	0	1	1	11.3667	-0.91709	-0.916899	0.617624	4	-0.00724237	38	0.384	-0.000566299
2	1	0	1	1	11.4867	-0.857083	-0.856881	0.785769	4	-0.007158	38	0.504	-0.00067331
2	1	0	1	1	11.6067	-0.797076	-0.796856	0.777528	4	-0.00706184	38	0.624	-0.000619578
2	1	0	1	1	11.7267	-0.737069	-0.736859	0.671803	4	-0.00697488	38	0.744	-0.000495024
2	1	0	1	1	11.8467	-0.677062	-0.676853	0.597426	4	-0.00689921	38	0.864	-0.00040437
2	1	0	1	1	11.9667	-0.617056	-0.616833	0.555374	4	-0.0068305	38	0.984	-0.000342573
2	1	0	1	1	12.0867	-0.557049	-0.556837	0.537088	4	-0.00676522	38	1.104	-0.000299071
2	1	0	1	1	12.2067	-0.497042	-0.496801	0.517294	4	-0.00670191	38	1.224	-0.000256992
2	1	0	1	1	12.3267	-0.437035	-0.436814	0.468488	4	-0.00664267	38	1.344	-0.000204642
2	1	0	1	1	12.4467	-0.377028	-0.376823	0.424886	4	-0.00658928	38	1.464	-0.000160107
2	1	0	1	1	12.5667	-0.317021	-0.316806	0.389078	4	-0.00654078	38	1.584	-0.000123262
2	1	0	1	1	12.6805	-0.339624	-0.339416	0.217514	4	-0.00650577	38	1.6978	-7.38276e-05
2	1	0	1	1	12.8005	-0.399631	-0.399398	0.126359	4	-0.0064859	38	1.8178	-5.04674e-05
2	1	0	1	1	12.9205	-0.459638	-0.459401	0.0743883	4	-0.00647427	38	1.9378	-3.4174e-05
2	1	0	1	1	13.0405	-0.519644	-0.519408	0.0415962	4	-0.00646749	38	2.0578	-2.16054e-05
2	1	0	1	1	13.1605	-0.579651	-0.579428	0.0193171	4	-0.00646399	38	2.1778	-1.11929e-05
2	0	0	1	1	13.2805	-0.639658	-0.639435	0.00105207	4	-0.00646285	38	2.2978	-6.72733e-07
2	0	0	1	1	13.4005	-0.699665	-0.699444	-0.0177014	4	-0.00646376	38	0.1	1.23812e-05
2	0	0	1	1	13.5205	-0.759672	-0.759435	-0.0476901	4	-0.00646728	38	0.22	3.62175e-05
2	0	0	1	1	13.6405	-0.819679	-0.819457	-0.128969	4	-0.00647705	38	0.34	0.000105685
2	0	0	1	1	13.7605	-0.879686	-0.879459	-0.264619	4	-0.00650092	38	0.46	0.000232722
2	0	0	1	1	13.8805	-0.939692	-0.939481	-0.292548	4	-0.00653562	38	0.58	0.000274843
2	0	0	1	1	14.0005	-0.999699	-0.999456	-0.296817	4	-0.00657036	38	0.7	0.000296655
2	0	0	1	1	14.1205	-1.05971	-1.05947	-0.396127	4	-0.0066105	38	0.82	0.000419686
2	0	0	1	1	14.2405	-1.11971	-1.11951	-0.678216	4	-0.00667077	38	0.94	0.000759266
2	0	0	1	1	14.3609	-1.17982	-1.17959	-1.51565	4	-0.00680124	38	1.0604	0.00178784
2	0	0	1	1	14.4809	-1.23983	-1.2396	-1.81914	4	-0.00702381	38	1.1804	0.00225501
2	0	0	1	1	14.6009	-1.29983	-1.29961	-2.32383	4	-0.00725133	38	1.3004	0.00302009
2	0	0	1	1	14.7012	-1.34999	-1.34975	-4.54084	4	-0.0075791	38	1.4007	0.00612902