File: Fig 2/Fig 2_np-Fe2O3_25mvs.mpt
mode	ox/red	error	control changes	counter inc.	time/s	control/V	Ewe/V	<I>/mA	cycle number	(Q-Qo)/C	I Range	step time/s	P/W
2	1	1	1	0	0.000000000000000E+000	-0.300043	-0.300044	0.575644	1	0.0000000E+000	39	0.000000000000000E+000	-0.000172719
2	1	0	0	0	1.9418	-0.348585	-0.348552	0.00468137	1	2.05294e-05	39	1.9198	-1.6317e-06
2	1	0	0	0	3.9014	-0.397577	-0.397537	0.00373655	1	2.75105e-05	39	3.8794	-1.48542e-06
2	1	0	1	0	5.8612	-0.446569	-0.446533	0.0030005	1	3.30298e-05	39	5.8392	-1.33982e-06
2	1	0	1	0	7.8208	-0.495561	-0.495517	0.00273577	1	3.76746e-05	39	7.7988	-1.35562e-06
2	1	0	1	0	9.7804	-0.544553	-0.544508	0.00242964	1	4.16318e-05	39	9.7584	-1.32296e-06
2	1	0	0	0	11.7402	-0.593544	-0.593512	0.00219436	1	4.48302e-05	39	11.7182	-1.30238e-06
2	1	0	0	0	13.6998	-0.642536	-0.642506	0.00183068	1	4.73419e-05	39	13.6778	-1.17622e-06
2	1	0	1	0	15.6596	-0.691528	-0.691482	0.00162577	1	4.92225e-05	39	15.6376	-1.12419e-06
2	1	0	1	0	17.6192	-0.74052	-0.740492	0.0010236	1	5.03549e-05	39	17.5972	-7.57965e-07
2	1	0	1	0	19.5788	-0.789512	-0.789465	0.000415124	1	5.04322e-05	39	0.5598	-3.27726e-07
2	0	0	0	0	21.5386	-0.838504	-0.838481	-0.000357645	1	4.8798e-05	39	2.5196	2.99879e-07
2	0	0	0	0	23.4982	-0.887496	-0.887483	-0.0018144	1	4.48442e-05	39	4.4792	1.61025e-06
2	0	0	1	0	25.4579	-0.93649	-0.936454	-0.00376418	1	3.77143e-05	39	6.4389	3.52498e-06
2	0	0	1	0	27.4176	-0.98548	-0.985449	-0.0156574	1	2.06247e-05	39	8.3986	1.54295e-05
2	0	0	1	0	29.3772	-1.03447	-1.03444	-0.0692326	1	-5.78864e-05	39	10.3582	7.16167e-05
2	0	0	0	0	31.337	-1.08346	-1.0834	-0.108825	1	-0.00024352	39	12.318	0.000117902
2	0	0	0	0	33.2966	-1.13246	-1.13238	-0.376276	1	-0.000570409	39	14.2776	0.000426088
2	0	0	0	0	35.2562	-1.18145	-1.1814	-0.440498	1	-0.00153456	39	16.2372	0.000520405
2	0	0	1	0	37.216	-1.23044	-1.23038	-0.409125	1	-0.00232781	39	18.197	0.000503377
2	0	0	1	0	39.1756	-1.27943	-1.27936	-0.740711	1	-0.003351	39	20.1566	0.000947638
2	0	0	0	0	41.1354	-1.32842	-1.32834	-3.71998	1	-0.00686425	39	22.1164	0.00494139
2	0	0	0	1	43.0594	-1.32342	-1.32335	-3.70459	2	-0.0161518	39	24.0404	0.00490249
2	0	0	1	1	45.0192	-1.27443	-1.27436	-1.33011	2	-0.0206917	39	26.0002	0.00169503
2	0	0	1	1	46.9788	-1.22544	-1.22539	-0.579257	2	-0.022418	39	27.9598	0.000709815
2	0	0	1	1	48.9384	-1.17645	-1.17637	-0.320348	2	-0.0232631	39	29.9194	0.000376847
2	0	0	0	1	50.8982	-1.12746	-1.1274	-0.147286	2	-0.0237099	39	31.8792	0.00016605
2	0	0	0	1	52.8578	-1.07846	-1.07839	-0.0526916	2	-0.0238883	39	33.8388	5.68218e-05
2	1	0	1	1	54.8176	-1.02947	-1.0294	0.00784522	2	-0.0239318	39	0.2	-8.07588e-06
2	1	0	1	1	56.7772	-0.980481	-0.980398	0.0384359	2	-0.0238687	39	2.1596	-3.76825e-05
2	1	0	1	1	58.7368	-0.931489	-0.931437	0.12029	2	-0.0237243	39	4.1192	-0.000112042
2	1	0	0	1	60.6966	-0.882497	-0.882455	0.203535	2	-0.0233792	39	6.079	-0.00017961
2	1	0	0	1	62.6562	-0.833505	-0.833476	0.123963	2	-0.0230591	39	8.0386	-0.00010332
2	1	0	1	1	64.6159	-0.784513	-0.784474	0.0810838	2	-0.0228604	39	9.9983	-6.36081e-05
2	1	0	1	1	66.5756	-0.735521	-0.735477	0.0579886	2	-0.0227246	39	11.958	-4.26493e-05
2	1	0	1	1	68.5352	-0.686529	-0.686493	0.0469833	2	-0.0226214	39	13.9176	-3.22537e-05
2	1	0	0	1	70.495	-0.637537	-0.637481	0.0432818	2	-0.0225319	39	15.8774	-2.75913e-05
2	1	0	0	1	72.4546	-0.588545	-0.588515	0.0426766	2	-0.0224461	39	17.837	-2.51158e-05
2	1	0	0	1	74.4142	-0.539553	-0.53952	0.0398597	2	-0.0223635	39	19.7966	-2.15051e-05
2	1	0	1	1	76.374	-0.490561	-0.490515	0.0360916	2	-0.0222876	39	21.7564	-1.77035e-05
2	1	0	1	1	78.3336	-0.441569	-0.441521	0.0328698	2	-0.022219	39	23.716	-1.45127e-05
2	1	0	0	1	80.2934	-0.392578	-0.392501	0.0311887	2	-0.0221551	39	25.6758	-1.22416e-05
2	1	0	0	1	82.253	-0.343586	-0.343544	0.030159	2	-0.0220939	39	27.6354	-1.03609e-05
2	1	0	1	1	84.1772	-0.304592	-0.304553	0.0274534	2	-0.0220357	39	29.5596	-8.36102e-06
2	1	0	0	1	86.137	-0.353584	-0.353524	0.0158053	2	-0.0219964	39	31.5194	-5.58755e-06
2	1	0	0	1	88.0966	-0.402576	-0.402544	0.0107753	2	-0.0219719	39	33.479	-4.33754e-06
2	1	0	0	1	90.0562	-0.451568	-0.451537	0.00805922	2	-0.0219548	39	35.4386	-3.63904e-06
2	1	0	1	1	92.016	-0.50056	-0.500519	0.0062289	2	-0.021942	39	37.3984	-3.11768e-06
2	1	0	1	1	93.9756	-0.549552	-0.5495	0.00512175	2	-0.0219321	39	39.358	-2.81441e-06
2	1	0	0	1	95.9354	-0.598544	-0.59849	0.00427046	2	-0.0219242	39	41.3178	-2.55583e-06
2	1	0	0	1	97.895	-0.647535	-0.647477	0.00337766	2	-0.0219182	39	43.2774	-2.18696e-06
2	1	0	0	1	99.8546	-0.696527	-0.696462	0.00268872	2	-0.0219138	39	45.237	-1.87259e-06
2	1	0	1	1	101.814	-0.745519	-0.745445	0.00127203	2	-0.0219116	39	47.1968	-9.48227e-07
2	0	0	1	1	103.774	-0.794511	-0.794439	-0.00214727	2	-0.021914	39	1.7196	1.70587e-06
2	0	0	0	1	105.734	-0.843503	-0.843434	-0.00564406	2	-0.0219238	39	3.6794	4.76039e-06
2	0	0	0	1	107.693	-0.892495	-0.892421	-0.00592028	2	-0.0219374	39	5.639	5.28339e-06
2	0	0	0	1	109.653	-0.941487	-0.941403	-0.0127182	2	-0.0219555	39	7.5986	1.19729e-05
2	0	0	1	1	111.613	-0.990479	-0.990397	-0.0287973	2	-0.021998	39	9.5584	2.85207e-05
2	0	0	1	1	113.572	-1.03947	-1.03939	-0.0728043	2	-0.022089	39	11.518	7.56723e-05
2	0	0	1	1	115.532	-1.08846	-1.08837	-0.182946	2	-0.0224054	39	13.4776	0.000199114
2	0	0	0	1	117.492	-1.13745	-1.13737	-0.152152	2	-0.0227241	39	15.4374	0.000173053
2	0	0	0	1	119.451	-1.18645	-1.18635	-0.203634	2	-0.0230558	39	17.397	0.00024158
2	0	0	1	1	121.411	-1.23544	-1.23537	-0.413114	2	-0.0236275	39	19.3568	0.000510347
2	0	0	1	1	123.371	-1.28443	-1.28435	-0.964551	2	-0.0248986	39	21.3164	0.00123882
2	0	0	1	1	125.33	-1.33342	-1.33334	-2.42904	2	-0.0279938	39	23.276	0.00323874
2	0	0	0	0	127.255	-1.31842	-1.31836	-1.97532	3	-0.0332488	39	25.2002	0.00260418
2	0	0	1	0	129.214	-1.26943	-1.26937	-0.815955	3	-0.0357945	39	27.1599	0.00103574
2	0	0	1	0	131.174	-1.22044	-1.22036	-0.395561	3	-0.0369119	39	29.1196	0.000482726
2	0	0	1	0	133.134	-1.17145	-1.17136	-0.218479	3	-0.0374936	39	31.0792	0.000255917
2	0	0	0	0	135.093	-1.12246	-1.12238	-0.0949836	3	-0.0377918	39	33.039	0.000106607
2	0	0	0	0	137.053	-1.07347	-1.07339	-0.0292013	3	-0.0379002	39	34.9986	3.13444e-05
2	1	0	0	0	139.013	-1.02447	-1.0244	0.0133193	3	-0.0379178	39	0.4398	-1.36442e-05
2	1	0	1	0	140.972	-0.975481	-0.975409	0.0235987	3	-0.0378772	39	2.3996	-2.30183e-05
2	1	0	1	0	142.932	-0.926489	-0.926426	0.0991372	3	-0.0377685	39	4.3592	-9.18433e-05
2	1	0	0	0	144.892	-0.877498	-0.877434	0.186271	3	-0.0374711	39	6.319	-0.000163441
2	1	0	0	0	146.851	-0.828506	-0.828435	0.107083	3	-0.0371767	39	8.2786	-8.87111e-05
2	1	0	0	0	148.811	-0.779514	-0.779453	0.0606647	3	-0.0370175	39	10.2382	-4.72852e-05
2	1	0	1	0	150.771	-0.730522	-0.730477	0.0404838	3	-0.036919	39	12.198	-2.95724e-05
2	1	0	1	0	152.73	-0.68153	-0.681487	0.0317043	3	-0.0368481	39	14.1576	-2.16061e-05
2	1	0	1	0	154.69	-0.632536	-0.632508	0.028656	3	-0.0367881	39	16.1173	-1.81252e-05
2	1	0	0	0	156.65	-0.583546	-0.583489	0.0270343	3	-0.0367321	39	18.077	-1.57742e-05
2	1	0	0	0	158.609	-0.534554	-0.5345	0.0247073	3	-0.0366802	39	20.0366	-1.32061e-05
2	1	0	1	0	160.569	-0.485562	-0.485492	0.0226605	3	-0.0366329	39	21.9964	-1.10015e-05
2	1	0	1	0	162.529	-0.43657	-0.436511	0.0211178	3	-0.0365891	39	23.956	-9.21814e-06
2	1	0	1	0	164.488	-0.387578	-0.38751	0.020669	3	-0.0365473	39	25.9156	-8.00944e-06
2	1	0	0	0	166.448	-0.338586	-0.338524	0.0203259	3	-0.0365063	39	27.8754	-6.88082e-06
2	1	0	1	0	168.372	-0.309591	-0.309543	0.0175554	3	-0.0364671	39	29.7996	-5.43416e-06
2	1	0	0	0	170.332	-0.358583	-0.358547	0.0109279	3	-0.036441	39	31.7594	-3.91818e-06
2	1	0	0	0	172.292	-0.407575	-0.407515	0.00794733	3	-0.0364236	39	33.719	-3.23866e-06
2	1	0	0	0	174.251	-0.456567	-0.45651	0.0063376	3	-0.0364108	39	35.6786	-2.89318e-06
2	1	0	1	0	176.211	-0.505559	-0.505518	0.00540508	3	-0.0364005	39	37.6384	-2.73237e-06
2	1	0	1	0	178.171	-0.554551	-0.554525	0.0046219	3	-0.0363918	39	39.598	-2.56296e-06
2	1	0	1	0	180.13	-0.603543	-0.603505	0.0042144	3	-0.0363843	39	41.5576	-2.54341e-06
2	1	0	0	0	182.09	-0.652535	-0.652492	0.00357085	3	-0.0363779	39	43.5174	-2.32995e-06
2	1	0	0	0	184.05	-0.701527	-0.701477	0.00323401	3	-0.0363725	39	45.477	-2.26858e-06
2	1	0	1	0	186.01	-0.750518	-0.750457	0.00230669	3	-0.0363685	39	47.4368	-1.73107e-06
2	1	0	1	0	187.969	-0.79951	-0.799434	0.00033559	3	-0.0363674	39	0.44	-2.68282e-07
2	0	0	1	0	189.929	-0.848502	-0.848462	-0.00196105	3	-0.0363712	39	2.3996	1.66387e-06
2	0	0	0	0	191.889	-0.897494	-0.89744	-0.00288398	3	-0.0363776	39	4.3594	2.5882e-06
2	0	0	0	0	193.848	-0.946486	-0.946412	-0.0106101	3	-0.036391	39	6.319	1.00415e-05
2	0	0	1	0	195.808	-0.995478	-0.995425	-0.0254225	3	-0.0364273	39	8.2788	2.53062e-05
2	0	0	1	0	197.768	-1.04447	-1.0444	-0.0831725	3	-0.0365149	39	10.2384	8.68655e-05
2	0	0	1	0	199.727	-1.09346	-1.09341	-0.109014	3	-0.0367757	39	12.198	0.000119197
2	0	0	0	0	201.687	-1.14245	-1.14238	-0.082932	3	-0.0369539	39	14.1578	9.47398e-05
2	0	0	0	0	203.647	-1.19145	-1.19139	-0.126102	3	-0.0371493	39	16.1174	0.000150236
2	0	0	0	0	205.606	-1.24044	-1.24037	-0.276917	3	-0.0375226	39	18.077	0.000343479
2	0	0	1	0	207.566	-1.28943	-1.28934	-0.685327	3	-0.0384019	39	20.0368	0.000883616
2	0	0	1	0	209.526	-1.33842	-1.33834	-1.71002	3	-0.0406056	39	21.9964	0.00228859
2	0	0	0	1	211.45	-1.31343	-1.31335	-1.10975	3	-0.0437654	39	23.9206	0.00145749
2	0	0	0	1	213.409	-1.26443	-1.26433	-0.495014	3	-0.0452367	39	25.8802	0.000625864
2	0	0	1	1	215.369	-1.21544	-1.21533	-0.269543	3	-0.0459482	39	27.84	0.000327584
2	0	0	1	1	217.329	-1.16645	-1.16636	-0.163651	3	-0.0463647	39	29.7996	0.000190876
2	0	0	1	1	219.288	-1.11746	-1.11738	-0.0715232	3	-0.0465893	39	31.7592	7.99183e-05
2	0	0	0	1	221.248	-1.06847	-1.06838	-0.0198985	3	-0.0466687	39	33.719	2.12592e-05
2	1	0	0	1	223.208	-1.01947	-1.01939	0.0143152	3	-0.0466754	39	0.6398	-1.45927e-05
2	1	0	1	1	225.168	-0.970482	-0.970406	0.0179018	3	-0.046647	39	2.5996	-1.7372e-05
2	1	0	1	1	227.127	-0.92149	-0.921417	0.0834299	3	-0.0465575	39	4.5592	-7.68737e-05
2	1	0	1	1	229.087	-0.872498	-0.872435	0.162055	3	-0.0463021	39	6.5188	-0.000141383
2	1	0	0	1	231.047	-0.823506	-0.823432	0.0884404	3	-0.0460495	39	8.4786	-7.28247e-05
2	1	0	1	1	232.191	-0.794861	-0.794783	0.0595102	3	-0.045966	39	9.6228	-4.72977e-05